Fz,C3,Cz,C4,Pz,Po7,Oz,Po8,Inst
10.726037649150662,0.43275057594512634,5.692142751964028,-0.6848935171374546,6.2374313741152,-3.222591128354902,-5.636337306304933,-5.932814380741366,g
9.45380530787161,-0.4131491167296848,4.379681178477329,-0.9603696019666849,4.8926110501737154,-3.282939583085981,-7.772294640535688,-5.623594215946342,g
8.11267691223868,-1.1222188100635784,3.1822298567375684,-1.1381940840431755,3.6803894637348877,-2.990207433889018,-8.309454951197644,-5.178416747541234,g
6.858236369444533,-1.5114843543524716,2.19863180042548,-1.2234808479503534,2.746184786762669,-2.5267172630378747,-6.116301381699012,-4.760857556100476,g
5.706360982798465,-1.5589346223687874,1.4441074806324856,-1.2863439134773647,2.102888732357608,-2.228961105809577,-1.444412768274389,-4.600370677061124,g
4.569232744360899,-1.386246839120341,0.882719769156834,-1.4287332093580738,1.6615457941295197,-2.384160307075026,4.130531056533884,-4.821933879554279,g
3.3759307560368486,-1.131252236618598,0.4963594797312334,-1.7182299847554865,1.3379218721780064,-3.0629198176050467,8.62697823031855,-5.34927002321028,g
2.161864413761662,-0.8463287773477548,0.31219421435064587,-2.13143914791079,1.1294969574264446,-4.116476681088992,10.735833787912586,-5.962679405788204,g
1.0458094157790878,-0.5217852419051789,0.35066999347054845,-2.5561486780019456,1.0874222952680805,-5.305028816766587,10.417645118714812,-6.455642817172418,g
0.12934658455594325,-0.18975478731864032,0.5485779934827868,-2.8683859533077696,1.2189055569461806,-6.445333805039671,8.69435401649683,-6.763432080565612,g
-0.5767720184774412,0.019552747398093918,0.7463398095597154,-3.034004935484195,1.4247309123625986,-7.4953040364840815,6.778083828865499,-6.970220884957041,g
-1.135441079275972,-0.05995934183980063,0.7684695525051912,-3.143256670028639,1.5388932962774304,-8.535234317033298,5.191627466537396,-7.193701225041427,g
-1.600193737241614,-0.497264483966644,0.5423691562493262,-3.331645843284312,1.4452768525770618,-9.649740559762758,3.5766056811433193,-7.437276850937893,g
-1.9388419534656456,-1.1716739252957962,0.1697529233332657,-3.644668100580522,1.1847986474295893,-10.794880595211561,1.2300379896449463,-7.531972393173514,g
-2.0217804717993824,-1.8032937136707587,-0.10318968846932645,-3.962955404697271,0.9704774886912995,-11.773220945612337,-2.23634842708465,-7.2257225852388585,g
-1.685448328527632,-2.0973275489680385,-0.0048552932818411556,-4.054566686041827,1.0886133632188566,-12.343800879936989,-6.616633696755993,-6.354407314020435,g
-0.8291577969069757,-1.9001100731239435,0.6289849036454159,-3.7150143535193094,1.7472605901896436,-12.35741021029252,-11.184704807551306,-4.95856261551379,g
0.5229917361083503,-1.249330456394035,1.7966571400338616,-2.893626939347706,2.975827822424944,-11.806247403215524,-14.924386604277718,-3.2636285947665393,g
2.23472979991893,-0.29426369879084546,3.371093605632725,-1.7274666372980385,4.634734103012505,-10.795088884938266,-16.893131943996003,-1.5611540192294042,g
4.119452145507583,0.8194849349536735,5.178967728617077,-0.4750286088430767,6.499651273925205,-9.500132440860838,-16.65780215320661,-0.0945685668513196,g
5.992676476867452,1.9894725434395284,7.041218872940914,0.5954779029481004,8.338149113137325,-8.13044653364639,-14.517373631024594,0.9787404874825061,g
7.686970790025997,3.108060608177132,8.76147834556585,1.2915352180305397,9.935919269685888,-6.873587164873212,-11.327316895020783,1.5551798959978023,g
9.046112907085533,4.008375490246498,10.109430452137765,1.5182745145547032,11.091793119912229,-5.848954039739153,-8.10943529408866,1.5435633193726317,g
9.920739196257221,4.477235132243072,10.83953804249495,1.2542671026710668,11.616866924605104,-5.108855239581614,-5.713817437115533,0.874489162160194,g
10.17133222087355,4.330038182634505,10.743054235957015,0.5228523313880158,11.353032006190126,-4.66963844158626,-4.567176931437187,-0.434261573028341,g
9.685441537078527,3.491072076176317,9.709914268007484,-0.6213057200135687,10.211189540870729,-4.524480702371298,-4.500784626407028,-2.21858289411309,g
8.420073340514717,2.028589296181201,7.778107313706885,-2.100671418321461,8.219909792975766,-4.6409475345470215,-4.838878029092823,-4.189405092255178,g
4.02934400895379,-1.9650798209599785,2.157620583450446,-5.679536708688427,2.547670190436322,-5.527751796367149,-4.23609077192484,-7.537387510678859,g
1.5002570608996115,-4.00114164388743,-0.7844113504405124,-7.4958410149249985,-0.40126968280504105,-6.27015851868609,-3.3731342994895868,-8.569822065169074,g
-0.7124783078091992,-5.719299850665527,-3.246513192500072,-9.011125649130795,-2.8500758320623487,-7.137721180417223,-3.061558822823293,-9.06389455923367,g
-0.7124783078091992,-5.719299850665527,-3.246513192500072,-9.011125649130795,-2.850075832062349,-7.137721180417225,-3.0615588228232937,-9.06389455923367,g
-2.2359408226140682,-6.846914567590604,-4.840890985115104,-9.904960020955897,-4.406428912382147,-7.966450909057967,-4.1539157519550125,-8.948580788675573,g
-2.855526705246555,-7.15234662430646,-5.313313688088552,-9.919177392538355,-4.818233476195457,-8.535286263606181,-7.058391987406553,-8.177583228952098,g
-2.5974957543600494,-6.559066774008592,-4.644869302057667,-9.006613950681711,-4.071644755125738,-8.646035139331486,-11.29109281289566,-6.80976861933638,g
-1.7197311982270989,-5.228549420090918,-3.0884164958593487,-7.4014696017304376,-2.424525536536323,-8.201493739520574,-15.464985906021232,-5.06273650704204,g
-0.59403035791298,-3.518575887801665,-1.0817960674600429,-5.543579414624013,-0.323034327015737,-7.257876762768814,-18.003414747330194,-3.2701902507553178,g
0.45431987452157846,-1.8229186683925,0.9278820227403974,-3.8864981558007394,1.7684623679782034,-6.01672678999973,-18.178781173325106,-1.7486172390074333,g
1.2540720039461841,-0.39344386622125976,2.64633257955188,-2.702164020728523,3.5312761637585695,-4.722381626344194,-16.600182745045032,-0.6585565137365152,g
1.7954996713256919,0.7430365531872573,3.9927163853343672,-2.001707449658683,4.866393897341149,-3.5136742763437296,-14.713373750212446,0.03575567089459834,g
2.154544232968451,1.7217765412169528,5.036199031136657,-1.6140948961447819,5.848165340357118,-2.3580766457393585,-13.753550854038153,0.4779357434382666,g
2.384745582793223,2.6710642600003887,5.855216987510446,-1.3548482119496548,6.589157806558349,-1.134549243691176,-13.943435906721964,0.7827725263101714,g
2.4444764827013867,3.558942752267884,6.418905920082056,-1.1591838922606184,7.105663386325434,0.21966164793006016,-14.402770173953249,0.9700982279183845,g
2.219051738229254,4.184348213803542,6.589221485590204,-1.0925794684190369,7.289403431063138,1.6321880268482694,-13.765557986601138,1.008969284199323,g
1.6322521911927665,4.330552600365012,6.252145639584778,-1.2507494425737322,7.01686907519983,2.9270681929893576,-11.144975172153936,0.9025860691688653,g
0.7531208389770837,3.9481237011870705,5.462410167591481,-1.640044711543257,6.301893672054222,3.9101112220305927,-6.8051033401724315,0.7204869935632854,g
-0.20679987130546468,3.2005318231226703,4.458124906685695,-2.1365124741522896,5.345383078406479,4.45090652048758,-1.9752769007975395,0.5531531924251107,g
-1.0131192541254304,2.336155688275718,3.5162728370435063,-2.5599777040242397,4.424736186247953,4.526064517335088,2.062681478906403,0.43841343737249483,g
-1.5501966437626666,1.5091986708157614,2.7640158322602435,-2.809099528734434,3.7075041028666504,4.194059666388101,4.763869431909233,0.3263645323040232,g
-1.8863157927690684,0.6992434136850244,2.093032288575059,-2.9470819813770204,3.132672423937914,3.5156855700656093,6.313440898343226,0.11567695641466118,g
-2.2352592243269545,-0.22624168865735936,1.2339170849587038,-3.1597353423195402,2.4439546109819106,2.502148401523077,7.061161639189862,-0.2611034976463301,g
-2.8455106461809896,-1.3762598806421618,-0.06657034108830961,-3.6138734752607022,1.3525082202113807,1.152565989626977,7.114066282327205,-0.7692968221049474,g
-3.8695186742603354,-2.731748140715164,-1.880061754513573,-4.329993508425003,-0.273744069932982,-0.47031648407000776,6.367105213711266,-1.277607181521455,g
-5.275215500325984,-4.136592840206082,-4.042230837762074,-5.16520678891217,-2.313862386114632,-2.2249009690463066,4.694091435143341,-1.6264098853593247,g
-6.852132755898151,-5.37664058924184,-6.236239310068712,-5.903839719198455,-4.451457044065364,-3.944398637757743,2.0499054649043016,-1.6913527421741257,g
-8.310956820725867,-6.279340709387941,-8.150199417570317,-6.373598288387025,-6.340935796235496,-5.481509838751717,-1.486151943249598,-1.399848166997229,g
-9.412632920748258,-6.765381940070941,-9.603147331716357,-6.507534631124043,-7.766462386319832,-6.708071965202156,-5.681815534210936,-0.7284505363056999,g
-10.05505466942206,-6.844534451856939,-10.577755485300989,-6.333938211043692,-8.704227302804885,-7.514041049314118,-10.177018622250822,0.2754059405479828,g
-10.28999334974649,-6.599538059251493,-11.177547591122165,-5.935334982227445,-9.284740940454379,-7.836784696619668,-14.520979517715682,1.462178654065934,g
-10.27995197845284,-6.180373509217727,-11.560475821949579,-5.427455262648463,-9.706609368385397,-7.688260937646101,-18.174823430691326,2.5986930990042323,g
-10.213948236116696,-5.7792475518211335,-11.880079368901832,-4.965529171326542,-10.149571498889348,-7.148747424296327,-20.61841683658131,3.460720222716057,g
-10.217086424732846,-5.564677174685257,-12.245986865603701,-4.735095500872874,-10.71799724768434,-6.342218314945407,-21.647950776637664,3.949190777483005,g
-10.311523849259949,-5.616512009542754,-12.718454269453517,-4.891331412094526,-11.438831856224004,-5.411743699767162,-21.553835352755947,4.141642090396177,g
-10.463656083011124,-5.924882578303267,-13.33986893336207,-5.4788734159677475,-12.311754626714128,-4.490071370969,-20.80813941862955,4.22160069533067,g
-10.67553108749017,-6.452171048913877,-14.167558706461483,-6.410228781500194,-13.362109421006448,-3.677025719574909,-19.5099114743031,4.3152793515230865,g
-11.026676785980332,-7.184483704680273,-15.256768145669849,-7.531576663637812,-14.633633835658921,-3.0533647382811386,-17.3034097573262,4.358868548171904,g
-11.614275781844109,-8.107851413450152,-16.587244755509772,-8.708693941161574,-16.111511747015914,-2.7115904682803267,-13.977928095224314,4.131776978269146,g
-12.43837791268187,-9.127954336326118,-17.99280121127251,-9.846513103054487,-17.64043718890957,-2.7349292782979764,-10.073596743415901,3.463241436285281,g
-13.337227680444371,-10.024911352460924,-19.171445420333065,-10.844284035607142,-18.92334510394482,-3.1163793804011606,-6.764861077145167,2.4412558395398145,g
-14.044015830529764,-10.52127680516795,-19.801664200959593,-11.571340723223097,-19.63223283098106,-3.7147210553981993,-5.105976473162192,1.4172036044560419,g
-14.339415713948924,-10.440760426819725,-19.705143672420924,-11.918904768785797,-19.572950029902735,-4.324360908538614,-5.328394567939172,0.7771618976715559,g
-14.189349797203864,-9.83136655180941,-18.942622212200906,-11.882408881624361,-18.788201241327187,-4.79898052825757,-6.719807231205351,0.6716868094910422,g
-13.757759788099,-8.931066492533784,-17.76315015210654,-11.583280479833558,-17.51449857214994,-5.106595828841783,-8.135305656798513,0.9344590869258227,g
-13.283686734341966,-7.989377911783403,-16.44137621298966,-11.196370072218963,-16.024550213797067,-5.283133619773888,-8.822719709162278,1.2491263400512476,g
-12.72490291304696,-6.204374864618204,-13.894177854323297,-10.516700606507928,-12.979823194909347,-5.287461099277972,-9.4755858259044,1.5036025409298917,g
-12.632059708216884,-5.230025690840941,-12.744436661858504,-10.164908270947638,-11.565740037629988,-5.012960332812388,-10.904412711865167,1.7620106152969233,g
-12.633714900686979,-4.245658770500085,-11.80093777870785,-9.752939309931424,-10.40086382469527,-4.480260864387144,-12.836067604010015,2.3931638333485785,g
-12.633714900686979,-4.245658770500084,-11.800937778707851,-9.752939309931424,-10.40086382469527,-4.480260864387144,-12.836067604010015,2.3931638333485785,g
-12.747610969138098,-3.4421834171081414,-11.215179184317217,-9.329874582222738,-9.662107131982685,-3.7394566572014356,-14.149784483105066,3.370083461043076,g
-12.959474724085998,-2.978004137564251,-11.042124208092067,-8.959639537301431,-9.403793098837312,-2.945024119128334,-14.063601960669871,4.466569913987422,g
-13.158347194122353,-2.8291466344433696,-11.141053239446816,-8.609682604663316,-9.465279013573277,-2.2494053472581097,-12.767538135216999,5.445579143372116,g
-13.149341881075937,-2.7824205710622767,-11.211394694089293,-8.126488028758589,-9.529564782722014,-1.680422753491957,-11.108792208035911,6.214130267002426,g
-12.74034977311649,-2.576091657034959,-10.941983075643694,-7.343957207296951,-9.293316355255723,-1.1405438361962592,-9.81734759799961,6.814591925358295,g
-11.836236246553408,-2.0712331828459845,-10.164861448638682,-6.2263610890171766,-8.619183498769578,-0.5309863996549907,-9.00942431796972,7.3042928808273775,g
-10.477829324619224,-1.3246520385047458,-8.916659885345593,-4.914195074758245,-7.569826863338056,0.13733147139453633,-8.225969154088151,7.666523688433048,g
-8.814233770412336,-0.5240215213688,-7.390273002935599,-3.6435771034141724,-6.326299849520789,0.7481187036003536,-6.879171539113933,7.824976445384175,g
-7.044261289845795,0.14570099913513798,-5.832288999678498,-2.618740666504214,-5.076023268288811,1.1652604994202616,-4.838188219180402,7.719320343989279,g
-5.369251289338581,0.5952337626345882,-4.45830976129245,-1.9325008521580522,-3.955821468929398,1.3147985501228268,-2.703415989354286,7.361876511013344,g
-3.967474509313899,0.8275154899215937,-3.421099140324428,-1.573612368822057,-3.06595594273326,1.2221212087874278,-1.381351525666036,6.831014587962079,g
-2.9704433299978596,0.8726192122938297,-2.816665553386053,-1.4969781931898691,-2.502579225596027,0.9894174740825313,-1.2245290360814525,6.2096552132160365,g
-2.4325847008573827,0.7368907448706092,-2.6945239565524393,-1.6931704777525227,-2.3529116532591567,0.7072338080465309,-1.6056182464303652,5.520339027070643,g
-2.3198774480007343,0.4069557538179798,-3.0551355903428634,-2.1937265032555944,-2.65180887516807,0.35533451480034584,-1.442033095468292,4.721044896136273,g
-2.5410444733037796,-0.1081353516261773,-3.8374749959005725,-3.0015058726246417,-3.3416972059541186,-0.19856195371209062,-0.19583777099480262,3.7794282767404206,g
-2.996378096522412,-0.73551097695945,-4.903924747677351,-4.009540486191072,-4.26810635558964,-1.0706529672904772,1.5683499703465156,2.762206832210896,g
-3.592993985436589,-1.3271548602735064,-6.03489426530883,-4.994206575360861,-5.210528888204835,-2.2201580547882225,2.504423977625931,1.8485443392017686,g
-4.219920656188607,-1.6949239478268001,-6.958568029711738,-5.708037133013027,-5.936308505648105,-3.4356403371633837,1.4280711887222477,1.2431250709121993,g
-4.735939675552393,-1.6884712718642905,-7.431138484604979,-6.0104753279091385,-6.266250402648849,-4.453607724318504,-1.733813569573588,1.0547122299628022,g
-5.011479439922838,-1.2765642998658375,-7.334601002584593,-5.939995273392904,-6.1287993977858735,-5.100114677393096,-5.66981572552581,1.2279397317016925,g
-4.994727661090214,-0.5707336136998903,-6.720825139776939,-5.669045641921379,-5.569363821199597,-5.364236822967836,-8.470945744749207,1.5708676699076973,g
-4.734659391153441,0.2373689872408855,-5.760017497055135,-5.362406979378995,-4.7045176619020665,-5.378659872210832,-9.046043006032514,1.8656468967435451,g
-4.334934790625091,0.9847675907194364,-4.631573232049098,-5.036569678652863,-3.6553869511624333,-5.315930440556825,-7.988721896137193,2.004423132088659,g
-3.879614986383152,1.6119138819618555,-3.444679560383804,-4.539721568097234,-2.51169723263506,-5.252111892108234,-7.040763364028729,2.059015752969716,g
-3.392900374596663,2.1506897965669407,-2.243828514371404,-3.6913159011331813,-1.345753804332404,-5.107983884493114,-7.595281399422118,2.2157253080774657,g
-2.8587051446369887,2.6431361218435354,-1.0735691375040985,-2.4737266089851095,-0.2458821416345768,-4.740654033346181,-9.577857810940774,2.6122718032706427,g
-2.2715637489330938,3.0627683626318265,-0.025153263753726042,-1.0986529122167212,0.6792858547553581,-4.106892086943058,-11.593787099302466,3.213978783425992,g
-1.6642784260032428,3.3055493113065872,0.7874460229791368,0.12200366645119214,1.3421848790358397,-3.3335950471484375,-12.070577916060769,3.8373787152180023,g
-1.0834863666215744,3.2554837100962124,1.2969411044112178,0.9820955713864012,1.725522072849921,-2.6360310649939804,-10.442164579817334,4.2898210329007735,g
-0.5427687209961274,2.862092708121076,1.5183470526732674,1.4773330057463194,1.8798922456161258,-2.183794912360077,-7.552100569509337,4.49631941741315,g
-0.013031354014014961,2.15932282459056,1.5037070118401012,1.7254155061983976,1.8555603544448744,-2.032173336471243,-5.029439461337963,4.5205083387585185,g
0.5313415162391164,1.2197635024415328,1.2633192085418579,1.8132067031482375,1.6320833442352396,-2.137894876669237,-4.09793202823151,4.489554141080357,g
1.0630422390825989,0.10688180088762715,0.7531687319157588,1.7234538612185293,1.1328463253693404,-2.415876628284308,-4.7700471090505445,4.497605188658987,g
1.5133113893877344,-1.1167568656548834,-0.03581199905980707,1.3996486443458012,0.33434511776622855,-2.7969237650605185,-6.106958940021942,4.558955032758584,g
1.8403191089395947,-2.3409004721848623,-0.9728351105927452,0.8724185059727461,-0.6293034546822922,-3.248045090721027,-7.212199276403578,4.6330468626818115,g
2.0827339772921447,-3.3915130935329807,-1.7922984423953472,0.3096816752994349,-1.4845765309591963,-3.7318413899172627,-7.9073426857335445,4.679151554426592,g
2.338927248221286,-4.094081511071626,-2.2347659397229527,-0.08000364359561081,-1.9701094204331366,-4.1541701490470455,-8.500772424462426,4.671241228538021,g
2.688620645763654,-4.378222696544015,-2.2109986113729154,-0.212057104725032,-2.001427475002464,-4.393854691491413,-9.133776660795522,4.558170870618687,g
3.1336158074562124,-4.326279380704646,-1.8413932976015637,-0.18882472130267977,-1.7045473045907804,-4.41450242314506,-9.542124133999076,4.241268366021255,g
3.6201740501420163,-4.099652963358483,-1.3278543664704328,-0.17545545379725516,-1.2822518655419668,-4.324236410900946,-9.413533813697967,3.6406470604159735,g
4.126082214947379,-3.7865902607481865,-0.7651016514813145,-0.20030580420346716,-0.8239632990093071,-4.28167096917962,-8.821964253327199,2.8074031442155745,g
4.718577369609905,-3.311083836752527,-0.0625524320883482,-0.08929921303893704,-0.22991028202658378,-4.332654652429548,-8.240089874337446,1.948985283993324,g
6.482275704068606,-1.3514859442433915,2.261201737933674,1.256409320744503,1.9054270903832073,-4.181413493162206,-8.420470859118106,0.9463853738417246,g
7.498569200489048,-0.03679689850040972,3.6664020904660646,2.3068059594297106,3.251527042649097,-3.7537052505269797,-8.54891102018448,0.739173342649587,g
8.290930085786353,1.044801481106996,4.775882627375802,3.169071993748189,4.339431067017066,-3.2177824312716914,-7.887432536659088,0.42676245369522847,g
8.290930085786353,1.044801481106996,4.775882627375802,3.1690719937481893,4.339431067017065,-3.2177824312716914,-7.8874325366590865,0.42676245369522847,g
8.66987209528077,1.5682545467791602,5.289981705014805,3.5819506600878355,4.877224944992671,-2.842538767549751,-6.524514893734225,-0.13885677433337545,g
8.618610605634903,1.4634022817291612,5.139465143145405,3.5358890760077157,4.797590519621944,-2.8387903669355348,-5.420951768669046,-0.8548627159186086,g
8.24911557205654,0.9170463797875661,4.458524003404167,3.2313092316810996,4.229899744774896,-3.1880667842561663,-5.678732727267428,-1.4056628987399051,g
7.670100688702152,0.2071058193127226,3.4512407135807224,2.9028686266456685,3.3679469429717734,-3.629138729649012,-7.527448078945336,-1.468047364052451,g
6.890684699740326,-0.48338838549404795,2.285865854792121,2.6583225588237362,2.3657911454923206,-3.846596323971409,-10.011544814769259,-0.9400979320452076,g
5.834638095460422,-1.13606765484127,1.0800552034363577,2.4488224513789723,1.3235706054932437,-3.715217904649271,-11.66654840336758,-0.019890920279560565,g
4.447986980669798,-1.8206808616075025,-0.05720466998908691,2.1682463202005264,0.3299778992285304,-3.379977857928968,-11.54826692574098,0.9301656774564826,g
2.8141742957285945,-2.556846578720447,-0.9972830797460377,1.7751459541236958,-0.5063523937436261,-3.109937611840397,-9.8035621978274,1.6225319727305276,g
1.1797888712123163,-3.241851988969775,-1.6168556578991207,1.331860862613626,-1.0749869405973325,-3.0821051120364897,-7.468799378677471,1.9943067714480107,g
-0.14084276139888238,-3.7035830429821437,-1.8516696701957671,0.9513915454860854,-1.3101130701643589,-3.284078177985207,-5.7067610099836,2.1642204056468737,g
-0.9067346519662387,-3.8111274558190624,-1.7092301893346586,0.7291283663569603,-1.2018287261784582,-3.5764472920943797,-4.997998093331022,2.26337117595289,g
-1.0178024967826655,-3.522887217961222,-1.203139229300403,0.727441054044708,-0.7383920541940567,-3.8249849763605788,-4.88463209591132,2.2988649052998062,g
-0.47214961257674776,-2.8385121842412593,-0.2722057390392071,1.0022104867408075,0.16236429868940885,-3.998321776574604,-4.509628934359648,2.1607587161992092,g
0.7040341982454121,-1.7425431581351645,1.2020279308949235,1.6092883512058094,1.6281295681744106,-4.1726869479279545,-3.4735698988549566,1.7527957275303288,g
2.46008602908099,-0.2291003520910789,3.257936469893791,2.5592750977049037,3.696445113215739,-4.445097840067269,-2.198729022068303,1.1230707026318274,g
4.667948859070468,1.619646045972588,5.723434239124879,3.7594171685128948,6.190748419865038,-4.828699899004973,-1.5351725841781851,0.47050233383701895,g
7.0986040039337865,3.6041861066120013,8.237822457196838,5.011175689144617,8.747513717894305,-5.231855593124609,-2.0969808043612925,0.011230918010373746,g
9.471071238883008,5.470988272585911,10.422603813186821,6.088026562882969,10.990199064377496,-5.542034343347973,-3.8753681350540985,-0.18130350445051327,g
11.531440480986276,7.008505243577384,12.054499004331891,6.84457340575513,12.70412958160369,-5.721223915004723,-6.235247663373438,-0.21808611822084772,g
13.102770170497262,8.098218797310475,13.110467226691757,7.277316654416656,13.879434948021446,-5.817319065005208,-8.2183379754679,-0.27831671774343125,g
14.093162733813035,8.704245089747953,13.683509225384464,7.495791121037485,14.61740913829504,-5.902540740933763,-9.112874940783637,-0.4406338450257281,g
14.480677050879487,8.832958899665012,13.86087462272921,7.631033800169203,14.995786560920465,-6.015272320254285,-9.004352190898578,-0.6156633695736307,g
14.289973817872854,8.497302344696847,13.655616010968831,7.748802682304708,14.99518518328318,-6.1422889609247004,-8.76464869235191,-0.6413488038068024,g
13.572452605352277,7.709698889011396,13.02965790997403,7.823279164635042,14.53334324805318,-6.229103132222265,-9.340935324089743,-0.4552341343967051,g
12.403574223038627,6.5098206477760865,11.980790345498285,7.779834988085246,13.57594669124689,-6.212232751786265,-10.960984742570885,-0.18746352169344888,g
10.893839764730695,5.000699454664528,10.613995044110567,7.567584652785525,12.229694780270844,-6.070344329691718,-12.963163859925249,-0.08655253313170899,g
9.187625525116978,3.351590405559068,9.12694714005669,7.205305084074828,10.730645380248962,-5.856884466725274,-14.285308647041399,-0.3383655537593301,g
7.435953558301513,1.7608390224642918,7.722369104734918,6.771015736125856,9.333398976880886,-5.674540145044871,-14.143482417118369,-0.9339880749375066,g
5.764610065072333,0.4156460291901983,6.533293768337882,6.355698761790946,8.198647372861073,-5.611942805541215,-12.53223697828388,-1.6926435555788124,g
4.263752368113186,-0.5259463335169698,5.620932811246223,6.027376722648261,7.366031406534591,-5.698308399571085,-10.352769569109126,-2.3990123532583274,g
2.9907400567935514,-0.952123809607196,5.012660508228033,5.825407679472644,6.803188993272488,-5.891308533238236,-8.971784626549198,-2.921047596935387,g
1.9602473026982998,-0.8375726413176497,4.709638667821845,5.7609017739876105,6.4567948873524355,-6.079379944468695,-9.2964533522189,-3.2254380286291964,g
1.1255493388432583,-0.28038082918122403,4.651340538974096,5.798455663641763,6.260312978651718,-6.111069260245957,-11.036971869440555,-3.327395898458686,g
0.3869776455445644,0.517300568114375,4.6934790368043995,5.840675108511537,6.120262031422348,-5.877887086037188,-12.88275439860955,-3.254807869414087,g
-0.3542238834666075,1.3331581678714646,4.650825034086559,5.762419718136625,5.926004585046739,-5.4061209793189775,-13.498730109552586,-3.0450755573593478,g
-1.1287609349380383,2.0173141748424515,4.3903986582159,5.496513378314317,5.594710664825273,-4.858316251505974,-12.468452205735984,-2.7337828888116884,g
-1.8751079023054522,2.5262224275655045,3.905631269743272,5.101509787119442,5.117401058131269,-4.420486272514228,-10.47308598242158,-2.3183620711903434,g
-2.4874950037682,2.877404068961143,3.3051795491190283,4.735033194188249,4.5568930528169025,-4.174375621986138,-8.738146623475476,-1.7384394151243483,g
-2.9116168415428594,3.0642523387825262,2.7098486580032466,4.533961128977925,3.9807321545724053,-4.062920615177027,-8.21052568141478,-0.9188245254212843,g
-3.22096991536012,3.0024376476634154,2.1302937673689035,4.490132562862821,3.3746838343377332,-3.9582289505125017,-8.92011417420569,0.13698761000928128,g
-3.6063829534166993,2.562676226928976,1.4319804850005382,4.424149599301686,2.619351282125735,-3.77194536859419,-9.905712227699029,1.2732198606736886,g
-5.282536673632854,0.42670266967628845,-0.9375121573013752,3.3424249894050866,0.18770876080275417,-3.48096941997857,-8.120344375895506,2.63851652501818,g
-6.541966486628844,-0.9646665403694271,-2.5526569579503864,2.251697338360769,-1.4007731416047058,-3.8231873730906982,-5.093207935141874,2.4500492203013478,g
-7.814797457545984,-2.253418794667831,-4.145622352606715,1.0653449835734912,-2.9522532526938265,-4.716093094661817,-1.9099834099914932,1.7276592191532767,g
-7.814797457545984,-2.253418794667831,-4.145622352606715,1.0653449835734912,-2.952253252693826,-4.716093094661817,-1.9099834099914932,1.7276592191532767,g
-8.87210847821957,-3.298741298126001,-5.464120171613306,0.0457494242938981,-4.244707416617186,-6.086465258919431,0.3879397996335331,0.6829080154774309,g
-9.594807976325184,-4.105337274531899,-6.4089242357886205,-0.6999542372085469,-5.19354099346455,-7.698043499808543,1.326930069543541,-0.5271512009949391,g
-10.001609096877512,-4.767192771998736,-7.0680406607156,-1.2670466542615029,-5.877555989616462,-9.304081247020374,1.00438652679559,-1.8946245275106057,g
-10.195398656873977,-5.3683497610470665,-7.631780291134886,-1.8531819026112626,-6.463366248492316,-10.7663941121607,-0.1359148679284773,-3.494131375449176,g
-10.271789118368519,-5.907290896018053,-8.246504212066672,-2.6008781159531233,-7.077190496623565,-12.075804586162196,-1.6036881424360598,-5.330570156627988,g
-10.254458003252633,-6.285357913366559,-8.903785886559524,-3.4957356433428344,-7.706752071377158,-13.299458493226837,-3.1921007767351655,-7.246334544410717,g
-10.10033777113082,-6.3623808432534315,-9.440281132488158,-4.371927104045159,-8.201358138463647,-14.493480050788623,-5.117330675889895,-8.963424085013298,g
-9.75971620718757,-6.043159279130505,-9.64560717221475,-5.0069931195026385,-8.371557309992237,-15.616434850772261,-7.759778322410922,-10.21995235501376,g
-9.234387765326336,-5.338766108839651,-9.399963708794996,-5.250406894793879,-8.11835491336856,-16.508911590062144,-11.217432470851328,-10.900294163445992,g
-8.594335444614062,-4.369774853021349,-8.752815469161684,-5.1142911023012365,-7.506680370789366,-16.98517624201881,-15.11673644678729,-11.072849974360555,g
-7.9599228323090445,-3.322114037444434,-7.90439395304824,-4.766563697045859,-6.743188647118799,-16.974554740580572,-18.793861755162474,-10.913776964638746,g
-7.471994432813017,-2.384901100361184,-7.109012233567045,-4.42699712102968,-6.07669444921313,-16.582595250880228,-21.58464190735608,-10.577696797520414,g
-7.254770446050804,-1.6921456446963816,-6.552958198698276,-4.2411526871835905,-5.676498571691769,-16.02302600710877,-23.05098923676463,-10.12091149634674,g
-7.372407032296463,-1.2902345768924959,-6.2746524824628995,-4.221924342389483,-5.558028543939544,-15.499228133381447,-23.16861791660306,-9.535360501118364,g
-7.799214366578421,-1.1566136691402154,-6.181282555264117,-4.28751021966882,-5.607569182209577,-15.1312419353809,-22.36813368103214,-8.845779089023328,g
-8.42622065224069,-1.2642721330153344,-6.154223116533122,-4.351739851236227,-5.693458728373253,-14.951310813159989,-21.22753506071303,-8.167153578561562,g
-9.099217125648677,-1.6340515299294445,-6.158333307971856,-4.3955482699086605,-5.775520009380132,-14.9473770002176,-19.99227044171554,-7.667381431898673,g
-9.663822615492785,-2.313303525300321,-6.259775989951945,-4.468823495562177,-5.918102927727795,-15.129159675412424,-18.458301457900763,-7.467034494950356,g
-10.004631237963604,-3.289641569823341,-6.540611873909779,-4.622222429643516,-6.199590754683507,-15.565440150501,-16.40871726096235,-7.551490142929455,g
-10.07740114551615,-4.419837262159676,-6.9946292371026235,-4.828761584055239,-6.608548473624838,-16.333629972394235,-14.119952770832288,-7.759246102060702,g
-9.920267853445987,-5.448108412931844,-7.499778894532764,-4.976181594721957,-7.023477501238014,-17.406919985592943,-12.380286642529608,-7.867417701153007,g
-9.622722682898583,-6.116100080987227,-7.888223133708211,-4.950626727751,-7.290912413716302,-18.6008168673905,-12.025127245079334,-7.73076423045281,g
-9.262434352334981,-6.296820240369859,-8.055733227566865,-4.736420849395473,-7.3337677690042025,-19.658284469011708,-13.399076991664538,-7.374905744519741,g
-8.858756258388325,-6.062204643578473,-8.02852057882998,-4.434765450362049,-7.205547728358946,-20.40150411168737,-16.087892975502015,-6.9622205091492955,g
-8.383688768061166,-5.629856845861319,-7.940442716787023,-4.188089208040173,-7.053059471954461,-20.811258868820094,-19.087522060696365,-6.652487681813204,g
-7.8216017482778994,-5.218984782231618,-7.941146753219277,-4.090572228973071,-7.020670257427646,-20.983499462741413,-21.40674004608736,-6.476834186148477,g
-7.231996750695368,-4.925440718771302,-8.11253565415867,-4.167109375137949,-7.175502196235847,-21.023747455249328,-22.73743111710501,-6.331589157154773,g
-6.770066196860962,-4.718026997490818,-8.46258702311423,-4.424332166510226,-7.513400478308722,-20.96170398025444,-23.571141162962256,-6.092120525797088,g
-6.640885790837503,-4.5471671658920885,-8.98491512254253,-4.906670568147996,-8.024977635529359,-20.7380695487307,-24.570452382545884,-5.749751031526591,g
-6.995577106502525,-4.447002280451345,-9.699263602579556,-5.686281353588397,-8.735706185505666,-20.280031485038272,-25.82757148766993,-5.459917174812238,g
-7.822906378792167,-4.522320930068433,-10.611044485798995,-6.774744367482226,-9.661350653046174,-19.61545177774242,-26.798140132596576,-5.452991325868211,g
-8.915542158199353,-4.832347898327737,-11.627038094240058,-8.025799598811405,-10.717543106821742,-18.909189445223213,-26.90849295453694,-5.8604685694708945,g
-9.951058152969223,-5.286112652274847,-12.525196747400303,-9.134333532003348,-11.682600716483599,-18.353442297339967,-26.122574930380114,-6.587632817441897,g
-10.64238461822671,-5.652178467683557,-13.03169337008886,-9.771379919276198,-12.27094769156968,-18.002636748730488,-24.957456644932282,-7.345348280155787,g
-10.862933312351199,-5.685025799816455,-12.96197484352586,-9.766892188961155,-12.27866521034787,-17.72076852522036,-24.083653958619198,-7.8272365065526515,g
-10.682214391019608,-5.276362081132076,-12.32966711079871,-9.193335248011893,-11.703787317800117,-17.291202366282388,-23.894618693965217,-7.892844823753832,g
-10.313535204091771,-4.521999323617663,-11.351062938159378,-8.290545777735009,-10.761232894322418,-16.57456527520849,-24.281280277329376,-7.620453414445718,g
-10.014907792253151,-3.6615488391187965,-10.343271361748807,-7.315733456971531,-9.783037147910218,-15.584682751313789,-24.729644988996462,-7.214677986808108,g
-9.99091875495603,-2.9475071911731683,-9.58315204976513,-6.447312725868342,-9.069915473085274,-14.457219802806247,-24.72635718540585,-6.861501820999839,g
-10.335609214298502,-2.5470961170203985,-9.215623713984233,-5.787789005167044,-8.78725800877207,-13.357799458933798,-24.152236117865325,-6.631941938416342,g
-11.03285043063905,-2.528541200542354,-9.252272351759341,-5.411827774000272,-8.952920076997753,-12.38454056284489,-23.261296733980135,-6.480282180707194,g
-11.995079707249458,-2.8923341285430557,-9.626013053086444,-5.388850474662475,-9.48817947641787,-11.525264463424323,-22.302380403232124,-6.32343130944258,g
-14.25210488783993,-4.495638365450962,-11.000631222006678,-6.502806547368698,-11.186913203552502,-9.926869830458363,-20.02932187275336,-6.011651448672971,g
-15.342825456479636,-5.478238300197105,-11.814953800169771,-7.520684980157737,-12.125014075287206,-9.249051996882802,-18.455614931734374,-6.062586537934561,g
-16.31270147908032,-6.412465983851779,-12.61063223596052,-8.683374158261632,-13.015190008983271,-8.789623007549979,-16.44354267224336,-6.356519874507413,g
-16.312701479080317,-6.412465983851777,-12.61063223596052,-8.683374158261632,-13.015190008983273,-8.789623007549979,-16.44354267224336,-6.356519874507413,g
-17.0931982391211,-7.2456343817851545,-13.307351618826104,-9.874754767524918,-13.790384797764196,-8.603225807039625,-13.908516121767786,-6.827816992247429,g
-17.581895687991544,-7.976155316523655,-13.789466986029614,-11.006539789392672,-14.35103774704337,-8.669156613165336,-11.010624423064732,-7.30297395308815,g
-17.663295029168605,-8.60073861507315,-13.920529951497832,-11.994784898854956,-14.567440587521412,-8.933591601462648,-8.270340411850094,-7.590967795181312,g
-17.2964669451024,-9.083920458750779,-13.624656631745216,-12.756664894274811,-14.35310408801092,-9.34771465513425,-6.259022540985965,-7.589297938011366,g
-16.60693971525011,-9.380791627373489,-12.98146497622903,-13.265062640543661,-13.763055947481078,-9.886457901467734,-5.145045605390168,-7.3478415036704785,g
-15.892997930695511,-9.492863800823388,-12.243834560683903,-13.609760879437335,-13.027341766843174,-10.564330253982689,-4.6437236795319805,-7.043113312141864,g
-15.512458164617462,-9.504135856922272,-11.73421261664592,-13.974501396629933,-12.466394609762371,-11.425096602526013,-4.422299658487662,-6.8628311200875505,g
-15.703525830226786,-9.550799799478265,-11.667209914885287,-14.517484679148883,-12.321098796218482,-12.478882341814352,-4.493611155823803,-6.880309993715852,g
-16.447440719638326,-9.73285244525925,-12.014105097862247,-15.25165984018636,-12.603680626587245,-13.63768234268801,-5.23538422702042,-7.02868899413988,g
-17.468439430159137,-10.04345715026615,-12.515457623637314,-16.030418420423814,-13.082028499881167,-14.731936225722402,-7.060821881900329,-7.20394941926998,g
-18.38459687413445,-10.39087964337555,-12.849195030089849,-16.648504537853917,-13.42584434408334,-15.60351089948227,-9.962483764052228,-7.40116240951391,g
-18.912170068220142,-10.693732627284701,-12.83373349249872,-16.973916790002935,-13.413523651142294,-16.18673583069514,-13.248249143818517,-7.753389423013774,g
-18.978072904526837,-10.944425484060002,-12.506006101244903,-17.013852678235374,-13.038836585462676,-16.52254792431034,-15.827608653545116,-8.43219847463083,g
-18.67213032618226,-11.171359164419915,-12.021378745859241,-16.876037082323787,-12.442241561044236,-16.723780152303814,-17.026634814355614,-9.488622613153648,g
-18.108682664001346,-11.350913970605003,-11.482091148734764,-16.663718666382046,-11.749065106367519,-16.913683800673045,-17.232058765500796,-10.75996583378092,g
-17.327753020734317,-11.377514775917419,-10.852422026554637,-16.38928394680714,-10.966783688042783,-17.143517331219744,-17.60837274635948,-11.91866023379245,g
-16.30123773452498,-11.130425249697788,-10.020848444458002,-15.974607159831404,-10.017194787370867,-17.335447959707814,-19.061779484914826,-12.636868372617165,g
-15.009402736507544,-10.572398166001673,-8.937290671224279,-15.333500895329513,-8.854247091956307,-17.321016056877426,-21.478652097345282,-12.752798025985058,g
-13.514718665923251,-9.79064392848004,-7.707514029397831,-14.464402750102483,-7.562535858701788,-16.96201630657012,-23.936542481367713,-12.320179504011039,g
-11.9826761217552,-8.948438265861054,-6.5744115324029035,-13.48077586328937,-6.361567311702382,-16.241986655348867,-25.536467338125117,-11.51675668713711,g
-10.635165518990176,-8.186454742624974,-5.796914385093966,-12.563852995298983,-5.5082453814171375,-15.250398416919902,-26.035731230222865,-10.502204254785072,g
-9.658107571502814,-7.546948979413367,-5.505165572585301,-11.875043474035676,-5.157345233344512,-14.10150785059042,-25.87289346886559,-9.341907436206629,g
-9.119107067323432,-6.977496358008916,-5.6321698231275095,-11.477905255538754,-5.275620280045702,-12.869826706923982,-25.71003929546361,-8.034729982636742,g
-8.94962385005777,-6.408671383665215,-5.969389671567091,-11.308337979425264,-5.6712783925634405,-11.56701640146392,-25.824838582167132,-6.592282761759014,g
-8.994510684843585,-5.833508765256612,-6.295348228373446,-11.213065291701453,-6.108922856162061,-10.15278417805172,-25.76115014436859,-5.0967092995988565,g
-9.083378506982793,-5.315000279581146,-6.475198753947607,-11.04182168098767,-6.417286964826635,-8.58892955244168,-24.58108781813711,-3.7036183717802564,g
-9.087146177486899,-4.923668473318018,-6.477054436789549,-10.736294494684536,-6.526778686374558,-6.921069599544268,-21.597609138945845,-2.6011344062867456,g
-8.958697027941916,-4.676617248844523,-6.333330204270338,-10.352355827332966,-6.4488116165784835,-5.314278117808497,-16.944328479232887,-1.956909503544725,g
-8.756069996795603,-4.532625456287624,-6.0993210763489305,-10.001881957276222,-6.23952314645377,-3.991718855470277,-11.490491847892615,-1.8802916389491369,g
-8.621594141752036,-4.4267562899147865,-5.826603706328292,-9.761327319182644,-5.966367565792609,-3.126903574901772,-6.327147139473484,-2.400025190627537,g
-8.703308329675316,-4.2956720607880365,-5.542853814329082,-9.608596025956157,-5.675703936860332,-2.7757940387588524,-2.3707952756911777,-3.434876737883431,g
-9.057585602269038,-4.07641352124975,-5.2370418069097955,-9.41865710374429,-5.367583085636849,-2.8638348661721293,-0.21418812125089595,-4.756209386879762,g
-9.596578133222184,-3.6997800164442807,-4.857531724187943,-9.01308817182751,-4.990677347351419,-3.197043756813553,0.01037379723170897,-5.994747976355139,g
-10.109380711335179,-3.101408472265007,-4.3245096861897405,-8.23728340718111,-4.460054562250326,-3.5076986520432385,-1.2464262391174061,-6.746292079967917,g
-10.336234447270517,-2.252223964059379,-3.5542625289914156,-7.024468519417065,-3.6913271709121376,-3.558541662090616,-3.1201461122635483,-6.742334911484775,g
-10.0527694825845,-1.1876702954000362,-2.4909702553885316,-5.406077448080271,-2.639802969597449,-3.2503158790296913,-4.800755718535117,-5.960069013353754,g
-9.119333386713532,-0.0011433998257374788,-1.1262973521237838,-3.4592111837584505,-1.3188805927776313,-2.6326716174278317,-5.913979187766687,-4.573825463147324,g
-7.464518899803292,1.2182054171147294,0.5211379369335418,-1.2287640799226984,0.23187705338899267,-1.808041302549982,-6.540259147068946,-2.7869538885306473,g
-5.018576411952518,2.4684804013330455,2.4589870107598144,1.3148608872482235,2.0164437631738235,-0.8279470152036573,-6.967470554939571,-0.6901894220530724,g
-1.6648244399429235,3.8605188216099435,4.749357506468895,4.243536190318106,4.120739154706995,0.3340577789075635,-7.366119667902761,1.7362806289756825,g
2.7339484788337183,5.546596221926395,7.466042051033931,5.228508073152714,6.66333448420535,1.739433674816124,-7.51517965390026,4.491454592090842,g
4.3104202191492735,7.612527464829611,10.614017804890612,6.220944908949846,9.692633054165636,3.4162629801888422,-6.810674574001328,7.423789810878882,g
8.055242865573955,12.748739444556003,17.74988137959688,7.809643939318789,16.80294391101429,7.240878468035353,-1.5452975062923633,12.666935969785369,g
9.812008793366854,12.793532696108729,18.18997849811311,8.135295993515868,17.28863137259487,9.080028259305225,1.7871479749910442,14.6327779929528,g
11.148560824875704,12.64450943273213,18.240573551857363,8.025411365263865,17.40947461489181,10.780817822633702,4.224148890330175,16.271933155630855,g
11.148560824875704,12.644509432732132,18.24057355185736,8.025411365263865,17.40947461489181,10.780817822633702,4.224148890330175,16.271933155630855,g
11.855890936972157,12.329621070968233,17.823196129216075,7.461715933446968,17.093689316883935,12.429339825665073,5.627976934932649,17.730834129455893,g
11.798921936397983,11.882285432922632,16.932200702571535,6.453699802244467,16.34299115192084,14.09867437144589,6.90729856896169,18.949137642683688,g
10.898998848578042,11.283877053207364,15.596267555179239,4.9996254461074745,15.182137427829872,15.70531503411551,9.269600574970056,19.64676989334965,g
9.107849818786187,10.44263194675774,13.84605957602184,3.0847725949945817,13.617498526087294,17.01608166936319,13.217517200900193,19.549439919916413,g
6.399637323483455,11.702220586998454,11.714260591623795,5.30918546488432,14.803464258778058,17.79697012847009,18.0730917576819,18.648505002985114,g
6.717436399382261,12.213335834610763,12.25328949206031,7.2103437641501404,15.327435141167848,17.9608787104542,22.387994469761935,17.258110919992408,g
6.955744196515896,12.224160278341468,12.36870066099209,9.049360454368234,15.373402071697146,17.603118527503902,24.9746510746169,15.820386914496575,g
7.120258490495201,11.887941385751635,12.179037617852531,11.048762079015603,15.084806458621548,16.920153715408482,25.75855135986463,14.621724726593683,g
7.2166770569310215,14.062506801146517,14.930718755074428,13.303994951945569,17.73755683943707,16.07247657835565,25.668883276581703,13.643127110971392,g
7.250697671434205,16.107377646684732,17.618875549900917,13.241087313669425,20.311237448507022,15.081537414161264,25.6240203135588,12.655208124034955,g
7.228018109615592,17.904217645135876,20.181393628279174,13.183670818518394,22.725546553550622,13.849025138204553,25.621309544793053,11.479044986248125,g
7.154336147086028,19.47116979447086,22.55976524644236,13.12743852163021,24.920184001449513,12.30139960823097,24.846722962522726,10.20223840760816,g
7.035349559456357,20.964531177340568,24.741373402817246,15.285284118284604,26.902638381852928,10.532638410606136,22.58976120100457,9.173020504019629,g
6.876756122337424,22.593566088884074,26.78553970484871,17.279102858886613,28.765617689986918,8.80386321198242,18.950672864476424,8.780024440473223,g
6.684253611340073,22.050660398851207,28.815193165289703,17.05445788336319,27.500268651135777,7.404450363348525,14.743673033301604,9.198788450497952,g
6.463539802075148,22.149124217075833,27.965626453656768,17.32292391658018,26.681866995208175,6.5082143257789085,10.90226826847399,10.28871435910497,g
6.220312470153494,22.563543859126582,27.47247484227858,15.43902063476251,26.242552146937566,6.122546678005941,7.981199938488652,11.678389214665726,g
5.960269391185954,23.026548917924675,27.218250696934525,13.391277556624095,26.02669910321823,6.118529541017353,6.024935221084999,12.946238500468166,g
5.689108340783372,23.432889682359,27.031114111296414,11.081868418396784,25.842536986786815,6.299384205374672,4.770082967705966,13.785889088684396,g
5.412527094556595,23.77058971940386,26.720967464879248,11.080326321571272,25.509570791416355,6.490296022103595,4.011193891901286,14.093554959050556,g
5.136223428116465,23.987649552990405,26.136354460808498,11.056522245735092,24.907872809404502,6.613996936701847,3.8269092187363585,13.954591422708043,g
4.865895117073827,23.940250041473785,25.224382567399545,12.928712430216118,24.01717566140288,6.688197129221878,4.437999954636622,13.53952877762757,g
4.607239937039525,23.46329447531361,24.04446494993848,12.136915671013705,22.909501401450836,6.73822996646507,5.878520692405694,12.967853657489906,g
7.4682464271577995,22.48334679460399,22.709178017003033,11.213431185211002,21.680367100260504,6.711327774440079,7.889088612595086,12.227716884575038,g
10.30899598491048,21.07179737145855,21.292866527724843,10.121073874651097,20.364199737237833,6.475345921472986,10.084389982381264,11.20578996273796,g
13.229611332519,19.40004196177522,19.781838003579953,8.70277392977643,18.904978005547076,5.891585968271024,12.057652681762065,9.800577623548522,g
16.162456900870282,17.629823343933268,18.095394466021904,9.334950159346464,17.20130605940323,4.8961626471774276,13.322376145685396,8.031121196421044,g
18.88400669749361,15.811405446588987,16.1430276733171,9.768941147475081,15.17645132642887,3.544201885844994,13.41753635707654,6.058138688274734,g
21.081165494334034,13.866078250393821,13.875276885044965,9.974826560184072,12.81986518578177,1.9943181516637807,12.282066547581907,4.10168424526402,g
22.474627727769363,11.681327428635493,11.318685983257815,9.941373224256722,10.195057486298927,0.4252398931294339,10.427028470808624,2.3219677442221105,g
22.968216794354294,9.254201956167583,8.59475218704836,9.688512618274494,7.434174400659043,-1.067367080646053,8.523282315465323,0.7616650755500394,g
22.741570021168734,6.760902740607422,5.906889066306472,7.373487517567321,4.722964640783674,-2.494260040986441,6.783720921970459,-0.6082130190105526,g
22.207615476604246,4.485656021048355,3.4879302289635006,5.49015189301619,2.269009260190694,-3.8799505253822995,4.8351864733307055,-1.793888282291259,g
18.739884397532126,2.6667412575284968,1.534731297962822,4.077271884321595,0.2609821886978823,-5.153949771335462,2.1805748794263584,-2.728912782163936,g
15.82608069965028,1.384395883802308,0.16604007867861165,3.1623140960650864,-1.1651763736031269,-6.150560624799246,-1.2796921439811313,-3.305410418488094,g
13.472112828286626,0.567660909219706,-0.5841876174879115,2.764565719249383,-1.9465162146554356,-6.710219612227464,-5.096243664218649,-3.4458029704165285,g
11.633223255141997,0.10094286389443212,-0.7422560055714648,2.875095984648365,-2.0922869302349882,-6.767229258995893,-8.477133607041962,-3.157009212765065,g
10.313346785096101,-0.05130911505632181,-0.34437413521806787,3.4391825595713272,-1.6482433352100265,-6.3543564183631105,-10.68965655754607,-2.5410059366384155,g
9.617746010617838,0.20907693326383922,0.615212865902784,4.365400882166831,-0.6383694043768882,-5.554264587161605,-11.498118972164432,-1.7613333773759443,g
9.698157138472087,1.0495194141000048,2.1877345192959834,5.560266976980214,0.9602966800645742,-4.4461254098812395,-11.340113571234227,-0.9763679249459687,g
10.612019263566753,2.560593585348339,4.399783509688834,6.956613910073825,3.1651445561367084,-3.066824809275072,-10.990118901257752,-0.2694143348735562,g
12.203562821932673,4.639086055004844,7.156603777168937,8.506219229411847,5.8903174176681405,-1.4101135790322756,-10.945364765539127,0.38202269846956016,g
15.898201039440725,9.279980220914238,13.170201638543219,11.786638385058358,11.807858548216217,2.6318562503670693,-11.044067758567587,1.9454411551505586,g
17.215458238254975,11.208480868690655,15.694229182360806,13.311098899237583,14.271114450488062,4.773022108002581,-10.294234892889687,3.0523179136524563,g
17.882929211788962,12.620745004158973,17.506604979807996,14.60968502515421,16.02014725713389,6.787657498141061,-8.665132110272365,4.37660299946681,g
17.882929211788962,12.620745004158973,17.506604979807996,14.60968502515421,16.02014725713389,6.787657498141061,-8.665132110272365,4.37660299946681,g
17.881522733568154,13.442732574490895,18.49436836893822,15.579498324224891,16.959296267731247,8.592033627119791,-6.238705392409358,5.778692545102208,g
17.28868636220691,13.630583252083344,18.691929429196136,16.12858636005027,17.142358792390876,10.162290621095812,-3.3564133631144855,7.051112484003298,g
16.212403839777995,13.152570768191936,18.221326931076156,16.197629231716025,16.697452067259352,11.49155249799287,-0.4345114024922996,8.027020274306967,g
14.75143069409145,12.023410970690856,17.21688257587347,15.794881354253885,15.743916315327283,12.57244675654734,2.317716589449821,8.682899250431774,g
12.981184321861761,10.35296377393571,15.779716335977318,15.012948109296934,14.354264046070938,13.39947813202354,4.939337090928581,9.155314939401183,g
10.948586582313355,8.35064131778507,13.977860030690803,14.006578380070508,12.571654365668753,13.96884057866339,7.4250636920819915,9.654496930678139,g
8.667908706138169,6.259633733287668,11.870420418490108,12.938002273249117,10.447957141321869,14.291152039380922,9.522778300550318,10.33048274159902,g
6.132153235449836,4.262338322942031,9.529826164452846,11.913448957435174,8.065923098718255,14.420079201466425,10.967764925570762,11.168000304483387,g
3.3551761827130386,2.4353494967867384,7.0561911947818405,10.945221050971027,5.540138183024695,14.446083728482012,11.859031026561073,11.967224174834353,g
0.4264846327679047,0.7936767303488729,4.586323023005603,9.976134755343665,3.0106653979583333,14.430639303210814,12.646986473766065,12.437905028698761,g
-2.467704348629452,-0.6166642558014225,2.291949594184987,8.96901685923522,0.6373360793380642,14.35326611512256,13.698394388079858,12.379791215658601,g
-5.086302060366194,-1.6628770104136865,0.3596010527369482,7.998473717021183,-1.4083070200117471,14.153289163033955,14.883014190426497,11.844290624624344,g
-7.218300959927147,-2.1620966503670993,-1.0464849845109714,7.255649352731401,-2.9607489319343467,13.831814701803529,15.552711647141544,11.146427092927077,g
-8.75799659880106,-1.9916498795958606,-1.8286248791675124,6.940671730613033,-3.893635753595153,13.501126309664553,14.964850689196533,10.689259770726016,g
-9.723900906569536,-1.1908604087999755,-1.9892237536516262,7.119512606265762,-4.160344350950696,13.334811920589113,12.939218688924564,10.715747937316245,g
-10.210242774151421,0.03127566309397691,-1.6274987014042437,7.659019620166835,-3.8127107208198403,13.474075935353165,10.2640502956727,11.170494163387783,g
-10.305491466769741,1.398740370920499,-0.8859555432565198,8.29361691697499,-2.9712155539651333,13.957805738711158,8.323248487167913,11.768963719386445,g
-10.041498795513823,2.7031032983880245,0.12400223862446995,8.780205678456632,-1.7618616469765715,14.704395342800439,8.044518694615657,12.214797176992825,g
-9.417341270366782,3.861906861035913,1.356347924638661,9.037475843176773,-0.2735347512020095,15.558202351252044,9.118120956823885,12.404958154699898,g
-8.475402925072759,4.867003378901833,2.792987895548248,9.174943994206867,1.4287790370831235,16.38907880069322,10.345192908075084,12.479852765819295,g
-7.3528784248342145,5.695597294690609,4.374110492052608,9.392164920165252,3.259737733066354,17.17065902521805,10.802211163483834,12.690810180549251,g
-6.250249766991563,6.283588805805403,5.9704497301108335,9.82547804724298,5.094262319950997,17.955170568797804,10.637466850409647,13.19416528564577,g
-5.334973755225306,6.584637516395077,7.428855457598951,10.457407083395182,6.797091654039507,18.76902146411289,10.800266373638046,13.9356202587953,g
-4.6568135921115426,6.646150782390822,8.649770112155682,11.14027874465103,8.272571749173832,19.5475458915271,12.134442139758384,14.703792213395719,g
-4.139783481812344,6.616816169446342,9.627669719166114,11.686110147911554,9.489363045001438,20.17117690377004,14.709789348794729,15.280582518316077,g
-3.6546891926384113,6.664952664982037,10.423203650560666,11.944158076771668,10.462067366138474,20.54069084146811,17.823438979476556,15.54917483051986,g
-3.118892089807924,6.867778552581852,11.095283941440634,11.836009024547376,11.209431195156855,20.61171958758489,20.530786125798226,15.495112569955396,g
-2.5539013506055896,7.160079518603237,11.648817802351498,11.361130036956242,11.724207945632292,20.39042968340673,22.284679335527812,15.147422607055002,g
-2.066065713772196,7.38263880819495,12.030735368473229,10.577912046317095,11.973499117441875,19.924890599807142,23.207567776942604,14.532851483999295,g
-1.7766910033296064,7.38557606981774,12.160618929593559,9.554697093737113,11.917286989116976,19.286306374398315,23.77242380965505,13.665830940923964,g
-1.7622625010514947,7.098862581868538,11.960066123750604,8.313695540220841,11.519905046208295,18.530226111221815,24.24090001223862,12.557420367753194,g
-2.0398999518978247,6.525249318659215,11.366660737097773,6.8177760756659485,10.74990768365112,17.67269846954096,24.507279841529797,11.227395410956174,g
-2.5817110867162656,5.691062999019591,10.350485284902769,5.023832238513931,9.589861728807795,16.70776155351255,24.478797900985562,9.711363811241355,g
-3.327925680079672,4.6184930490445515,8.9455758977518,2.9678335787728423,8.067525659502703,15.630149957013387,24.37298021369597,8.058248809061151,g
-4.199263364193358,3.338181313668417,7.2697835444727,0.8151160098182547,6.280514961235828,14.428320980991959,24.43099986374648,6.325671906393786,g
-5.126345313971852,1.910771147561865,5.49293196627636,-1.1722042929296261,4.374587596766139,13.083637268009701,24.42604439048987,4.585937771190001,g
-6.085103226617319,0.42962038673114,3.7595629269102324,-2.745321813172299,2.48109118874882,11.615668238807277,23.695780866588883,2.935486614239206,g
-7.095786906981407,-0.9887825091270317,2.131692771786298,-3.7884226801128995,0.6727121059266077,10.125596188559932,21.73355869293577,1.4872063482137519,g
-8.166345984338724,-2.211076954658135,0.6114519161075128,-4.355076978265654,-1.0136021850403705,8.762226525401722,18.667590096900035,0.3480047122730149,g
-9.224200450716086,-3.0965713815432894,-0.7741620785031236,-4.587080624020339,-2.510190436351091,7.63277510131565,15.172496265942083,-0.3954722018738434,g
-10.11130629670944,-3.5303732190792396,-1.9153177392556795,-4.590914179647818,-3.687769914546725,6.754216708236444,12.013139586390338,-0.6856023584710208,g
-10.67325318844774,-3.482759335950824,-2.664113386715665,-4.391968006470735,-4.41398701035477,6.078202179691143,9.632952408425705,-0.5262675744892102,g
-10.928431328686832,-2.530557967143295,-2.962331580594691,-3.5254906555395387,-4.627452668296855,5.042875905918831,6.819758541726967,0.5702386546206869,g
-11.082161618359486,-2.195716410679992,-2.9658948688725357,-3.154360984486824,-4.593886210940159,4.53831546900686,5.916907277813861,1.0234428856895983,g
-11.56184261305068,-2.2944510452945925,-3.270697051933017,-3.090813653527012,-4.842194717693915,3.973875499402824,5.547725869569756,1.1624166293688611,g
-11.561842613050683,-2.2944510452945925,-3.270697051933017,-3.0908136535270123,-4.842194717693915,3.973875499402824,5.547725869569756,1.1624166293688611,g
-12.341444089174587,-2.866479137233042,-3.955132841847143,-3.4173383661886354,-5.435678463701879,3.32256732554655,6.089979500880515,0.9746693155037385,g
-13.164090962298607,-3.7613328194564333,-4.833293600787361,-4.051076897310409,-6.197737207056489,2.5562792768671687,7.4813225364729945,0.5618496187309956,g
-13.733027543561324,-4.760653035019597,-5.610915821542987,-4.805767741867532,-6.860372005276032,1.6527593492064938,9.092148231673658,0.04132830233161724,g
-13.932626381694382,-5.716703787360672,-6.113871461369117,-5.51373854108605,-7.2716296739142265,0.6289960624280141,10.240341696640638,-0.5355854555498991,g
-13.89516800217063,-6.600516242557324,-6.397336253213313,-6.116682929665245,-7.492634863173794,-0.45550656118282484,10.720193408275865,-1.1923562193366701,g
-13.87156206354391,-7.449360286993628,-6.663204412158073,-6.663976644380767,-7.721197147265364,-1.5416013106265285,10.756470630177514,-1.959471860331266,g
-14.0333305280701,-8.289193246753163,-7.0814063789025585,-7.234678019530243,-8.126238460405542,-2.596739814015472,10.563818382341298,-2.7888821064894405,g
-14.367375290457996,-9.100233456438165,-7.6675796981993285,-7.85678562523958,-8.728035567018999,-3.583106764689542,10.061048721158082,-3.534221655721807,g
-14.723604184836313,-9.83181849447585,-8.295859809568011,-8.485657137978798,-9.399601845621444,-4.420527540825356,8.950918375518562,-4.028688247982262,g
-14.956588951571812,-10.43707440537405,-8.816305887475295,-9.044150469596124,-9.97323290296428,-5.011669848872277,7.027737097237415,-4.200958732807344,g
-15.049614336304376,-10.901011224999404,-9.180871938140971,-9.48242235858448,-10.372159022066171,-5.3111404779304685,4.529955621196409,-4.131470981189227,g
-15.130197734215397,-11.24423316512722,-9.482229116389004,-9.815040699662626,-10.669985956868707,-5.368316093716899,2.279167583939903,-4.0047020740929895,g
-15.364319548921102,-11.496819906000601,-9.874697668681492,-10.11599201696325,-11.027560924566849,-5.314466061049943,1.3007314210744865,-3.99699450611955,g
-15.812948782477438,-11.664321034656476,-10.441547679497441,-10.473023315643747,-11.554017568583932,-5.310772523831691,2.041906889583344,-4.177226675952776,g
-16.36969984286163,-11.719671670421148,-11.117803347640862,-10.921889084358083,-12.20506501244822,-5.474231451478717,3.8901696841273212,-4.477119495882031,g
-16.828029339262464,-11.622791252420745,-11.723363426948398,-11.400138236532488,-12.796255626492195,-5.808755013465655,5.558176453789214,-4.743056643621474,g
-17.016615531914006,-11.335845885948844,-12.065714840371966,-11.758855838737158,-13.110150027901089,-6.199974696808022,6.033272174504587,-4.836780303765513,g
-16.900151618718688,-10.8225399595627,-12.034281556484478,-11.834864353830815,-13.015880901745467,-6.502650783957267,5.25014236368208,-4.7214690201879455,g
-16.589717521112064,-10.062266572471904,-11.644352713301235,-11.541442369485925,-12.534752093803371,-6.653815539675835,4.013318598252946,-4.4752868638061845,g
-16.274734135175212,-9.096766806738144,-11.030016913673288,-10.923901101127646,-11.82952556880699,-6.708961385219494,3.349644603797232,-4.22604336287526,g
-16.12644565824224,-8.067226036443794,-10.3954688933245,-10.151959306019513,-11.129480754058145,-6.78234091074444,3.7406286264218878,-4.06076442612695,g
-16.23146848107892,-7.185243798742297,-9.940843678585017,-9.45552037982092,-10.632775794720496,-6.961123587920413,4.695371141532803,-3.9786199831711917,g
-16.59374476223488,-6.64244714711147,-9.797226105158012,-9.035779278520776,-10.443858624653092,-7.253045222823715,5.054774044675865,-3.916561563240518,g
-17.189275800296095,-6.52362634330135,-10.003259170460522,-8.9963158779267,-10.57621282785178,-7.578612152626704,3.9704686075649738,-3.8240321864915394,g
-18.00916421921881,-6.7816440707116525,-10.521692288854632,-9.328907588327093,-10.99395527130169,-7.815376642500456,1.766299478783876,-3.7312697607627343,g
-19.043824397434513,-7.284251543041097,-11.270289920008045,-9.952624918406514,-11.643930696375929,-7.895104057488152,-0.22190889956459872,-3.7550254676259534,g
-20.23568633032134,-7.902189298546235,-12.153291796700211,-10.770809091525203,-12.464784959328838,-7.888838646553576,-0.7747504315088725,-4.022365780016889,g
-21.47099065343331,-8.583184081553627,-13.093655668061473,-11.710556737860218,-13.39392873229996,-7.9805921078148,0.1803793487221796,-4.5602678430378365,g
-22.637509239249077,-9.353867254561836,-14.053727150878402,-12.731867727246945,-14.3803394667129,-8.325642595082488,1.5447489896442508,-5.242090417916021,g
-23.696601357649847,-10.238858059211003,-15.022565281889195,-13.806942643323415,-15.384444662932816,-8.917206105867155,1.8929758438157271,-5.842425147069456,g
-24.697439665426565,-11.167846010795444,-15.976170007833087,-14.877983917315508,-16.35829009144569,-9.575238246280657,0.40232749429329295,-6.157039681652836,g
-25.717485641882128,-11.971261015955033,-16.85235953992311,-15.824391936933797,-17.232814296006662,-10.044753952596599,-2.711381513294697,-6.096529664797094,g
-26.780800807120507,-12.487293223405473,-17.570697802880186,-16.483756572110565,-17.937504952989578,-10.117505268329925,-6.384354692602081,-5.704830685591065,g
-27.820502164625612,-12.68775241720416,-18.077880687007355,-16.733213205009736,-18.437665088352144,-9.719126008394964,-9.38061143383678,-5.119036218843119,g
-28.711619526907366,-12.703698400909477,-18.37271182119196,-16.57192721434175,-18.750508912517997,-8.934218002758442,-11.0459417948991,-4.505097335633575,g
-29.34600397198123,-12.72349430034637,-18.490141790330274,-16.130626513931308,-18.922844384157038,-7.944023321194479,-11.579139406846,-3.993452671705492,g
-29.69155281566342,-12.849956091874741,-18.464513988782755,-15.595953451863483,-18.990315727460125,-6.900256840150337,-11.622971351587582,-3.640651566175781,g
-29.794126221006216,-13.034659419165234,-18.306657940553688,-15.109406030190991,-18.952961506338866,-5.837242278215084,-11.625693771352584,-3.4391836830816507,g
-29.73066278884164,-13.139600381445462,-18.01399232712678,-14.71333056793714,-18.78799793943089,-4.703727663847372,-11.554206774823204,-3.3617323212760484,g
-29.5606013441271,-13.07030192047488,-17.60313645865366,-14.373756390186458,-18.490135932981026,-3.468032901757289,-11.026811607689618,-3.396858074669636,g
-29.31118325979866,-12.86310700942506,-17.12950971752449,-14.055941689783026,-18.100856763226727,-2.1831279047518772,-9.565930967262114,-3.5554085717174027,g
-28.98985335364703,-12.6483510651012,-16.664289344477528,-13.791873343196539,-17.69060501041006,-0.9738720834200377,-6.850181971261458,-3.864972481700214,g
-28.146876612056253,-12.486169327104172,-15.85065274746139,-13.796011539098824,-16.927219148571112,0.6115842926146688,1.202005418955365,-5.077969325520745,g
-27.664548037628254,-12.42805824606773,-15.447985181756005,-14.116175952025827,-16.51467703497857,0.7699529381994504,4.690318512812544,-5.975548901361958,g
-27.217168689925444,-12.281702760359703,-15.048097668816988,-14.487163797398086,-16.05811612307201,0.5233756460444974,6.568852447948406,-6.939265551818506,g
-27.217168689925444,-12.281702760359702,-15.04809766881699,-14.487163797398088,-16.05811612307201,0.5233756460444974,6.568852447948404,-6.939265551818506,g
-26.88902286714832,-12.068784198312096,-14.726098540203079,-14.723647758047028,-15.618366512693948,0.028014829098248685,6.568891217211338,-7.796115513976976,g
-26.73477003742861,-11.867989657863173,-14.564875930821918,-14.725762609039018,-15.286517247819877,-0.5136540593140132,5.027145951786421,-8.396628051310703,g
-26.724057789539096,-11.719284287790984,-14.574442930519885,-14.529035330108414,-15.103651809624452,-0.9221720439993595,2.6634034826555455,-8.692244682151992,g
-26.720324578382947,-11.564109314860378,-14.656981377581326,-14.251484912085246,-15.008712391289611,-1.0797190712623579,0.34671867824111136,-8.765060274084288,g
-26.523348012241826,-11.279169194640136,-14.65102070114377,-13.987649818818095,-14.862400174729157,-0.9603097824147493,-1.1815968637865173,-8.790351670331967,g
-25.97111952685906,-10.77836399859507,-14.426907800627287,-13.731939993425433,-14.53561757364553,-0.6501996796515763,-1.6104848229885653,-8.939424383740263,g
-25.047148357490688,-10.096809111725968,-13.964508687916359,-13.387607298672254,-13.997239614072305,-0.3072514231330582,-1.1804088502834542,-9.270070451028946,g
-23.91037523436064,-9.3820018843018,-13.353525690408679,-12.856011482611155,-13.330783693024085,-0.05344808616648945,-0.5141193272545929,-9.68438124157252,g
-22.80442468590647,-8.796615899412483,-12.717112774306901,-12.1347249417873,-12.664819627625054,0.10992828322752637,-0.2789766951764706,-10.00060051222479,g
-21.899578814523053,-8.415651094027627,-12.123523730225102,-11.334284374351844,-12.074721473505793,0.2814166159304089,-0.8047614481157908,-10.089265099738505,g
-21.188116662393575,-8.200349292091293,-11.55691814491528,-10.590842660501774,-11.536326021738441,0.5588430044296253,-1.7485027329624245,-9.960490701486885,g
-20.519336608749253,-8.055946074815662,-10.961120171995669,-9.956222674423824,-10.964390571135755,0.9488043669471944,-2.1044095777088834,-9.732739275605267,g
-19.749957216602915,-7.912786651820193,-10.309254916495314,-9.373798803374566,-10.298552214731888,1.3404603814501566,-0.867566011167636,-9.51648272755712,g
-18.892954883696923,-7.770888771507984,-9.642083792597269,-8.759772502055956,-9.567718703503207,1.5527955009943066,1.975051482867253,-9.308319782061735,g
-18.145181104645225,-7.691703495872524,-9.051706942711752,-8.104390845637706,-8.885833265205113,1.4472043577630307,5.088259700175273,-8.976194517171763,g
-17.761418150611547,-7.751988912221906,-8.625909707660579,-7.499648431623299,-8.38176197754103,1.0500772938876493,6.629944512748599,-8.353375677643744,g
-17.860730313169267,-7.983555071822589,-8.391373091247818,-7.080011073568774,-8.112282366964854,0.5755708577117579,5.664956646840099,-7.381809708229713,g
-18.316237666719402,-8.331643475296218,-8.298241513577674,-6.936741544383286,-8.024823743583191,0.29392427746183547,2.93053139321714,-6.195883418248444,g
-18.82843419466686,-8.667104646699599,-8.264166361387975,-7.076042381701238,-8.005020208688848,0.3438398992279868,0.35831132344220495,-5.070505954800524,g
-19.133332427659347,-8.854512402174237,-8.244075248315204,-7.445077859828852,-7.971919956864518,0.6534709198180434,-0.2229009986374761,-4.267480089057633,g
-19.171962611493964,-8.825923390242284,-8.257066194845306,-7.986177583837568,-7.932046837218794,1.0230061162613815,1.6858562154947332,-3.8992907554104006,g
-19.076422078757957,-8.599068487628577,-8.335181126894021,-8.650592730774047,-7.936404165219642,1.278206028542972,4.863604306113889,-3.9026796633329512,g
-18.99609330977383,-8.228702138191435,-8.438961649239245,-9.349504097689017,-7.980288036083444,1.3833498814818077,7.141897680096695,-4.11628074442161,g
-18.92987826711829,-7.73513654449319,-8.423930579458688,-9.905242907801123,-7.943697573493627,1.4636009219841366,6.918772294675776,-4.390497823436248,g
-18.708698414782837,-7.063001848166114,-8.0948397640291,-10.085510064653977,-7.62965160105278,1.7303029001506272,4.287014927141495,-4.657068436642764,g
-18.127506683332165,-6.097704693876976,-7.305674087168418,-9.715991279841184,-6.869571352554724,2.3429984500593277,0.8286898409628185,-4.917353804298527,g
-17.107031820847805,-4.736120631993559,-6.032663501347793,-8.770845120196759,-5.617264193140301,3.3059464111255332,-1.6867497414417023,-5.158493031309154,g
-15.760396550888467,-2.9734568369748495,-4.377484595364486,-7.357062282904809,-3.971460118777928,4.4947910841346586,-2.4930745666557703,-5.269922676154626,g
-14.323547250738315,-0.9418701179507311,-2.507736322716007,-5.618488996815289,-2.1185630102077333,5.784943536612023,-2.0273131383688865,-5.0524707910392666,g
-13.010746925489538,1.1396092398397326,-0.579210720974985,-3.6576858695090193,-0.23843319726652562,7.145147828288893,-1.3266718383736043,-4.336173796489783,g
-11.911603655086543,3.068170074752504,1.3055917198940334,-1.539074347825673,1.558472971028976,8.617071903504693,-1.2930691516085546,-3.1120310837447365,g
-11.010380262104082,4.725829707861705,3.0770318266171577,0.6465477004662589,3.218460576229647,10.237963316164302,-2.1809245367844734,-1.5626129070815726,g
-10.301251705958643,6.061966005988506,4.6430172507039575,2.72328673342252,4.676629271364172,11.988769490344614,-3.37998769603497,0.0294493314856485,g
-9.888638372210035,7.0222499237389995,5.8541700892098,4.434879078477655,5.8006066549010615,13.772030588261112,-3.625187666328128,1.41660884943599,g
-9.9794319732128,7.500089313378391,6.521484034825237,5.524283464560982,6.397776740959608,15.399743051253276,-1.6656979843130024,2.4739590040748665,g
-10.769982794577784,7.3595311521519475,6.474760271089815,5.840057316314411,6.283607277715031,16.61999655246169,2.971898433669696,3.199701547357823,g
-12.312979688049158,6.517959322271574,5.629627531096852,5.390479810591546,5.369102220649145,17.204210104740184,9.631535739169976,3.6441749842188758,g
-14.45862655515143,5.029360630543427,4.035153024750054,4.307040476066212,3.7199216527879075,17.040084784177658,11.94431830454052,3.824853411447446,g
-16.909644441936813,3.103017344722418,1.881431756272346,2.7618493502786245,1.5550146480174374,16.160786017502957,17.68441114749006,3.7016484471036817,g
-19.353461070654326,1.0353667065787502,-0.5449956303683988,0.9132204639316065,-0.8208737331332975,14.716234185718601,20.719456346773047,3.2393955954537432,g
-21.58492796599959,-0.9046920385653736,-2.9500969137778803,-1.103918120360862,-3.123183443003886,12.928519124201301,20.90064920873816,2.4873655626520845,g
-23.544052286582843,-2.5674465566610443,-5.131506852166647,-3.184644578814996,-5.18102794093376,11.028643967707676,19.3107101796286,1.5701650938325915,g
-26.75400472091668,-5.13701752028416,-8.750886934511605,-7.388859859037359,-8.576300275236122,7.355765785750461,16.32752936233586,-0.5206518366883686,g
-27.987738029256526,-6.257787722616339,-10.379609713123392,-9.533281109589623,-10.085330312723636,5.533656563085721,15.561989510307498,-1.8634307947814754,g
-28.868817161435338,-7.377090178751485,-11.943364847412457,-11.666096489675912,-11.500936207832144,3.681015472313431,14.22382190842534,-3.5435232649504904,g
-28.868817161435338,-7.377090178751485,-11.943364847412457,-11.666096489675912,-11.500936207832142,3.681015472313431,14.22382190842534,-3.5435232649504904,g
-29.3227781043924,-8.482155959259886,-13.321790356648483,-13.659169716430034,-12.71548252352012,1.8833613473191082,11.572117265934363,-5.492321643715007,g
-29.36832598308613,-9.510407799832807,-14.331306835444295,-15.349180748585391,-13.58536976415203,0.27536296752376843,12.51252277078185,-7.466040167499694,g
-29.143076901419004,-10.413152951751602,-14.86769764550579,-16.621402632582257,-14.048089519645751,-1.0500589332460866,8.284936978664788,-9.154697603444191,g
-28.849031914319255,-11.192352061170334,-14.990982085255599,-17.464654437648747,-14.181817186150491,-2.0801819859873985,4.687944256768274,-10.338388633647849,g
-28.648038663955596,-11.87914222413822,-14.877951159372804,-17.95176070751571,-14.152506080603795,-2.861843230143487,2.1591290858982,-10.982691556893274,g
-28.58602637850716,-12.482438659154141,-14.688698152680704,-18.15347010390984,-14.09389569915443,-3.452014736800117,0.3520633104828034,-11.200197103248756,g
-28.605572442117385,-12.959320510990489,-14.463737973523816,-18.05440482974521,-14.021530449835428,-3.8582409664918442,-1.439009754416273,-11.109611066557003,g
-28.6267530513097,-13.227640804134657,-14.127556299845159,-17.552728395808682,-13.843021100390573,-4.003186060910407,-3.613684281533307,-10.719029279503372,g
-28.616582209304404,-13.204248690238893,-13.57848914151295,-16.556710867809507,-13.443481007062555,-3.760574727126567,-6.011220111848242,-9.940159850992496,g
-28.58941774187857,-12.846244083090326,-12.784556917741792,-15.095853030271632,-12.775925854787747,-3.047950056708039,-8.203419155953643,-8.713909857207504,g
-28.553393242634247,-12.179018111502362,-11.814672488308291,-13.345189420553035,-11.896104992414573,-1.8889669213760771,-9.85191968916745,-7.126855873088995,g
-28.463201857395507,-11.294021763322066,-10.790737881454437,-11.543463965159843,-10.925659600107968,-0.3933570975817771,-10.745739291273448,-5.418330369660696,g
-28.225546780398997,-10.310969349853135,-9.80712877085671,-9.878798719795753,-9.977025316588215,1.2969518470810402,-10.680896903009605,-3.87743705643377,g
-27.75745731530113,-9.330841107819793,-8.887411817749575,-8.428022957670915,-9.099418624426818,3.031065882109485,-9.479996147669544,-2.7080694530839127,g
-27.054191121997853,-8.416280674309322,-8.00876622239403,-7.176513393712324,-8.282056632679433,4.652748133447455,-7.126022200529637,-1.9498138564053829,g
-26.2063331549787,-7.600360850151015,-7.154170631882858,-6.083509702627084,-7.49350761396749,6.026664782904322,-3.8473070691525306,-1.4950961951884885,g
-25.337811710777352,-6.891713113609924,-6.328767363345951,-5.135773150644038,-6.707449083468154,7.077021998267239,-0.14495138859675266,-1.1744836311978202,g
-24.510073745800728,-6.265085926081805,-5.5314687841698955,-4.351468243082867,-5.900046013821636,7.798479912028123,3.2588499023341333,-0.843076861140257,g
-23.683078113927497,-5.666036473213202,-4.735066126010716,-3.7412683239221862,-5.050491549850026,8.237657083808122,5.70734303485942,-0.42425180369875176,g
-22.775384675880115,-5.0473529792575125,-3.913096814200016,-3.2722482575729885,-4.164514716949154,8.468317160471,7.055642125033048,0.08025579111257686,g
-21.764946810174912,-4.407627027623657,-3.08372594554474,-2.8744397364111927,-3.2928200209792484,8.559170086446226,7.808617541573857,0.5898790603010962,g
-20.73577505041107,-3.7962740128597283,-2.3185539615438793,-2.485255412875972,-2.5134673027558128,8.532936259963211,8.683955378169738,0.9601286779045134,g
-19.84115343744838,-3.2933093173312322,-1.7126185405254986,-2.0941167788651045,-1.8967113582701327,8.355142164516916,10.029943737081165,1.03263642826643,g
-19.231772374688898,-2.9932685798246763,-1.352682207123269,-1.757228376396456,-1.493512877558469,7.9802985177743695,11.696653169516766,0.7082027592817582,g
-19.00228801290866,-2.991997315676092,-1.301771489037566,-1.5751397518075234,-1.3490918224267172,7.406702392348261,13.333928623198537,-0.002003304366505576,g
-19.167811407550918,-3.35337437212196,-1.58432318167649,-1.6383990622791302,-1.5038783961735347,6.67092758903515,14.642823808101198,-0.9803847397280722,g
-19.660460400921288,-4.061758933479857,-2.1634953654387665,-1.9621100045811748,-1.9632567130703016,5.798283808256034,15.414069055425765,-2.0560518346022563,g
-20.344573939313634,-4.9996205568345795,-2.9311484005399198,-2.4533404890886024,-2.662869783531618,4.787073597252599,15.552491750364345,-3.0733825362922413,g
-21.05546146687261,-5.977585610003034,-3.7346206128132993,-2.949445394525907,-3.469017332779272,3.646278522745537,15.112130937334195,-3.9367739858946798,g
-21.65867026153736,-6.804942653402068,-4.438947413799271,-3.310475350693533,-4.227853164759787,2.4281908232245697,14.16941393838287,-4.606802074745724,g
-22.10937728026763,-7.363046980496806,-4.992889156042484,-3.4944778211189607,-4.839947883183617,1.2197645642382426,12.642203138679738,-5.0588933094852155,g
-22.46996679400653,-7.637766207065971,-5.44919410568427,-3.5543675905765246,-5.307877724907906,0.12093139227544158,10.380593148957784,-5.251327132913099,g
-22.847058888341415,-7.68224385056652,-5.905888557723349,-3.5622583830600347,-5.7090648474269505,-0.7680157541944957,7.476794922914048,-5.1413757918284775,g
-23.270056867927355,-7.532747781568477,-6.400514994921916,-3.5257623708940478,-6.1054789420090465,-1.3696723842864986,4.350601292215496,-4.7343823153963625,g
-23.610228398267743,-7.156292820335568,-6.852632837037731,-3.363972826243321,-6.4723531842672015,-1.6642143114187147,1.4713661879439308,-4.111826706346964,g
-23.629925756163598,-6.491060916845806,-7.122014750314321,-2.9644827350071736,-6.719280539356279,-1.6924672075619,-0.9001917531462634,-3.4079981771594503,g
-23.134457234388492,-5.5431487848115895,-7.132880589743539,-2.280548708420675,-6.779076446208374,-1.5135251189895247,-2.6721067928210935,-2.757681911038971,g
-22.094947828420246,-4.436182557034003,-6.937150991277628,-1.390002665541254,-6.665355794482781,-1.1692903673537633,-3.786403626842547,-2.255369883194235,g
-20.63827380072221,-3.360176311526041,-6.65150903121351,-0.46078144737816623,-6.441492368984951,-0.6955858477148384,-4.22691756622403,-1.9416463367237302,g
-18.925684984607607,-2.470559816401035,-6.336762313034879,0.35346284555330343,-6.146532441609246,-0.14489203061442818,-4.0617763008453895,-1.8072014343031846,g
-17.03102041472348,-1.8246334992478168,-5.943317582901231,0.999836160647481,-5.762991814871588,0.42455912355548475,-3.3867863468935817,-1.8023337537643704,g
-14.911381692317637,-1.3893761136575595,-5.3731819253246895,1.5273896321713178,-5.254522612121546,0.9731805416300384,-2.3081654145898067,-1.8449745241190343,g
-9.697047226993249,-0.8599833976093224,-3.696076777240976,2.533528404775855,-3.9411418017521442,1.912560212435367,0.03212437223026106,-1.6122435506777655,g
-6.623806140627662,-0.6416844439747533,-2.8251117942345383,3.079238249040646,-3.270956121311768,2.2679721238166928,0.7295281516802599,-1.096468290516955,g
-3.332859513211633,-0.378355169953974,-2.051900188064761,3.6505559270139143,-2.618651578881672,2.5641018313216635,1.1759233721550648,-0.24477202795881264,g
-3.332859513211633,-0.378355169953974,-2.051900188064761,3.650555927013915,-2.618651578881672,2.564101831321663,1.1759233721550648,-0.2447720279588126,g
0.19570289990324827,0.005005109504326821,-1.2911590857845165,4.253623137814474,-1.8932554068335374,2.8409839029872024,1.6893145071501365,0.8556075103882282,g
4.109089553103044,0.5740200711983573,-0.36863250785669754,4.921729020982086,-0.9798970363198167,3.121103940689623,2.395905500102164,2.029182835991301,g
8.577370314724885,1.3308954350668907,0.8102048698773796,5.700949551540845,0.14190536732081763,3.4022649470625184,3.1091650875917702,3.1097753039225866,g
9.765713267602706,2.1936892529935017,2.1452691629029292,6.613061067951319,1.3445665496277508,3.6840152365521512,3.5439459624904286,4.031181299633267,g
10.692243902954655,3.045317399547089,3.3967350236161744,7.624957572959362,2.4277966717710098,3.9792399745945644,3.5619673285464706,4.8382248953062525,g
11.354798161468604,3.8086060711553977,4.36164052243292,8.653099202016858,3.260038067953743,4.29562966360807,3.2777473731119087,5.609877740185284,g
11.763112132776847,4.469608337603534,5.007142311978107,9.595572963521462,3.854098200319026,4.622640716935185,3.085044001917779,6.350704374206315,g
11.934244258626988,5.0312475065537745,5.44556708315516,10.35903087179798,4.312415194866292,4.93683975680983,3.553967938448931,6.928569197979409,g
11.854049287504662,5.457999990331777,5.790932645967439,10.86864804454073,4.704161658727517,5.196835102927297,5.07660831460662,7.113381775358947,g
11.429306018721938,5.67765727203369,6.037657437461415,11.079389554193376,4.9919225099735245,5.327150087370168,7.472596669100225,6.709669886530921,g
-19.72389584020262,-0.7769115317126918,-4.8066081270797465,-8.026860711896294,-6.205738091872017,4.441228319512475,19.25694490685044,-2.1174223916424078,g
-20.448141872065943,-2.90174655306994,-6.2297264491961455,-8.728543535618659,-7.638689761402036,2.8913027990342552,16.372312501961932,-0.664434369519399,g
-21.151051604814022,-5.068200238961897,-7.722797888131841,-9.418858333115768,-9.100021480671186,1.4103139730221894,14.194464338854953,0.46805546305574763,g
-21.652023178086125,-7.140353952948833,-9.191562354247306,-9.993498965629996,-10.520016324258135,-0.00748276645548227,11.98287625241907,1.322348940642148,g
-21.749915162706863,-8.835230309093953,-10.370840983091473,-10.236941434252934,-11.656499223510874,-1.2612699782857693,8.862880139562607,2.038078811484642,g
-21.331526442326712,-9.863161253361532,-10.953147993521466,-9.97457613050223,-12.210833195799214,-2.198904971078618,4.751039931226569,2.6293224385045795,g
-20.418134675683763,-10.087887300996503,-10.759833388963587,-9.207943281941025,-12.00835534789498,-2.7033824510021858,0.6266612525548052,2.915425513484946,g
-19.117712685789495,-9.58653557696212,-9.830666963817013,-8.126014472704735,-11.102803726423538,-2.7671485056911385,-2.20160443878034,2.655405594604865,g
-17.53846120593394,-8.582752965977592,-8.385061026536638,-6.97790336825179,-9.73428095836081,-2.4990390480744447,-3.1817226560614684,1.772622785006977,g
-15.747677352165974,-7.319724346464082,-6.703202394511574,-5.914141054346196,-8.18591916250664,-2.0433190603514504,-2.9220160695514985,0.4777694257313829,g
-13.807776682080668,-5.965306811812409,-5.0152801145307455,-4.936440288173159,-6.65176441631485,-1.4821732241259118,-2.5945594345034726,-0.8265188483810295,g
-10.109960335613712,-3.3128727147145183,-2.1425791513895387,-3.0974698108549594,-3.8980681317972548,-0.05761766976975977,-3.7990421886156605,-2.3032066800878477,g
-8.893858405205622,-2.2225327868922444,-1.1616885318214891,-2.3882046852933088,-2.829537759725903,0.7554406232045309,-4.2186795765762275,-2.4844782121227413,g
-8.452241457725531,-1.5192229252690377,-0.6570421807478569,-2.0105057296868827,-2.195677679122456,1.523337646412764,-3.481077673390762,-2.494353359396952,g
-8.452241457725531,-1.5192229252690375,-0.657042180747857,-2.0105057296868827,-2.195677679122456,1.5233376464127637,-3.481077673390761,-2.494353359396952,g
-8.856987886765074,-1.3401526079666723,-0.7328182807271687,-1.9935185310358499,-2.171411187471796,2.163109136596966,-1.8550873729324624,-2.35685502908344,g
-9.960609013365188,-1.6783743284553325,-1.3901261537908554,-2.194616615254678,-2.7889321137963035,2.6499146191077765,-0.5722624043802955,-1.9289473599689224,g
-11.491129994424623,-2.391443866153674,-2.519447002353919,-2.385838847127457,-3.908822084269481,3.0325045574123957,-0.721700214439492,-1.0318713091384286,g
-13.22094202504556,-3.3148830068797066,-3.9669184306289607,-2.422313270570057,-5.314749398629608,3.403997145261889,-2.0352516178958737,0.36713697181079236,g
-15.07739934197831,-4.375428678105285,-5.611781042861906,-2.3538919988051425,-6.844275158342424,3.8224286361712814,-2.9002150781156844,2.069904029115843,g
-17.1056102812172,-5.599752810337237,-7.386944509249572,-2.371387267510379,-8.444202248463966,4.23668419860158,-1.7868280707939903,3.736244428235866,g
-19.31441851972649,-7.007233222452652,-9.227604193378768,-2.6169456480048603,-10.110492118213418,4.511528249833946,1.2448908919000705,5.087626278437875,g
-21.527581701092238,-8.470685204845996,-10.989342385088737,-3.016705283994849,-11.765132619682763,4.559185750492948,4.4234879928764155,6.066682773428398,g
-23.359149595793422,-9.662913448932596,-12.405370432163547,-3.2824953787270488,-13.172340494086384,4.454688769841644,5.64114196333856,6.827307849110737,g
-24.350351174750404,-10.16124132363269,-13.139782833399607,-3.083684773128592,-13.978026679020221,4.415290369992393,4.131851995268548,7.575100386322132,g
-24.196711597862443,-9.669681830591717,-12.930370212103245,-2.2526760725626036,-13.870520037970469,4.663153910079221,1.1208302449188916,8.39674478204103,g
-22.919765874799122,-8.207751289638392,-11.732092519975314,-0.877195027529833,-12.757621909713944,5.289668084590495,-1.0553552840708267,9.205758879178333,g
-20.858062729424784,-6.1136587736394565,-9.751002101535851,0.7678087823973174,-10.82739306852407,6.209963812547111,-0.7393757474210482,9.825437878121026,g
-18.474795470976225,-3.8482024876217005,-7.337745330366022,2.3851017928359153,-8.44746245479903,7.221695331657561,1.7474275610949779,10.132759150542876,g
-16.116344569941504,-1.7473388339196965,-4.819771273747611,3.80274856056106,-5.982290427714941,8.13472866964209,4.45724376856549,10.157362502860439,g
-13.889975848835064,0.09524196898225945,-2.3881845470462872,5.013844045793772,-3.6561139380767074,8.894171554022053,5.571438865378221,10.064666649727895,g
-11.733883659572987,1.7488445640766468,-0.10122903637807959,6.096258930074706,-1.5377481762469263,9.59394645901605,4.946924341007829,10.032487672600038,g
-9.61342700941981,3.252257306771457,2.0145429662915455,7.083383766061717,0.3632589492301223,10.352478987036811,4.064405126502858,10.11523208303039,g
-7.6955533588291996,4.4602507881519955,3.8396833188889623,7.881284602520455,1.9631825638410638,11.162037636086922,4.62300748292307,10.206749664188083,g
-6.372180970389321,5.048068860103085,5.104071118442851,8.278485543778656,3.0294744880427134,11.856485675618446,7.213929010349554,10.13024598430221,g
-6.104794139723881,4.67874125553802,5.452349122770001,8.029709503701842,3.230146392715342,12.211083421372845,11.096019931435029,9.775223638385736,g
-7.184633177797091,3.217985628074673,4.607636288300025,6.969826326598026,2.291052619468903,12.06287321719804,14.915310596503213,9.17475959840254,g
-9.562644216837613,0.8432512492709012,2.532501874701147,5.11430843679267,0.1643111650317553,11.367364329789368,17.601150514334698,8.482514634724591,g
-12.854970003633644,-2.0252406361625432,-0.5163711737095158,2.694854724862516,-2.9008297348360976,10.200750251935116,18.83646519094222,7.885358662810343,g
-12.971205858767798,-4.9117565570929465,-4.069675443522586,0.08886059551835146,-6.42797104921159,8.73400989508228,18.90462637893827,7.515807822690713,g
-12.946819971961059,-7.461951102195281,-7.609056214580948,-2.3338067103075892,-9.881742893290212,7.176272875218842,18.143054609668102,7.41592780536385,g
-12.781226892988945,-9.514023146004197,-10.721527072578162,-4.348580449181736,-12.840515321329633,5.705726515592985,16.582611157926443,7.566188103466937,g
-15.38968484872718,-11.050152025223033,-13.169152245369286,-5.905286930949897,-15.082092418792868,4.437462614127781,14.180653607868319,7.93904607035463,g
-17.461290027058805,-12.081217978834252,-14.851857572232708,-7.046289465000273,-16.545146146495988,3.4361591129186175,11.310203162218754,8.512986618759026,g
-18.87463667722654,-12.5496909231321,-15.71236356640884,-7.796206467306983,-17.215188896195826,2.726838892345812,8.760023961515458,9.230816527602519,g
-19.38105291855494,-12.323527331847167,-15.675146256538834,-8.111283597571122,-17.04126683359266,2.2885345573295055,7.1228697560556125,9.959959821140533,g
-18.72472938240417,-11.288423726564952,-14.675990871728391,-7.917434054760784,-15.956158579258746,2.0723145918225385,6.3083062277715864,10.516361024877622,g
-16.825144505583644,-9.461282210720057,-12.745331821734403,-7.195732897089336,-13.969296328175243,2.048700376174801,5.775472061981896,10.740601079931958,g
-13.873551268048171,-7.025342065201535,-10.054786625053193,-6.0368249331236274,-11.233682270961472,2.216548595077624,5.1653209082372245,10.56120959843979,g
-13.816581108724488,-4.262077822855861,-6.8837271377559315,-4.613240877083837,-8.026873839887902,2.540621464730237,4.627100034680676,10.003158249775648,g
-13.595051187263246,-1.4496558451646218,-3.548457238454791,-3.099562825034808,-4.676252314019651,2.89334512981766,4.634401366525539,9.150678963611593,g
-13.313346246936144,1.1917290192901195,-0.3540766584332852,-1.6227895095348557,-1.4925408833046792,3.0853372862802404,5.57511201974783,8.0957152985962,g
-10.214240722934909,3.4974789186769293,2.4263685701669386,-0.2800255012346848,1.2657294666238113,2.9601382979534603,7.379799982840891,6.903096017980934,g
-7.684636536836233,5.343028301782903,4.579070147465156,0.8292065036348258,3.4148651079522034,2.4640726167485374,9.368024972917159,5.617044355093962,g
-5.727346625471049,6.645470962600069,5.991128139192652,1.6225826292642958,4.866137425868265,1.6547885523763122,10.522885931477301,4.305808831721899,g
-4.296788486765431,7.373909238821305,6.673207765722511,2.090261454707483,5.628096350795655,0.6715680224238805,10.13300850078078,3.0987106386080407,g
-3.354513762377799,7.543645377751862,6.725276939257898,2.302597093979126,5.770983072514104,-0.31921560874599675,8.269458929208287,2.1650744109077023,g
-3.094058218028852,6.259014243434121,5.214035320293973,2.1380578704489546,4.341522238762245,-1.9447507667539519,3.053117752398074,1.5614495881160064,g
-4.0463794458060045,4.710372942047033,3.5068695847379603,1.5798311098179323,2.6141404699953514,-2.6089397604754403,1.0043058902040851,1.870778075010763,g
-5.886483296395437,2.4891981378091637,0.9932673021826162,0.5138168939318641,0.06912537224140074,-3.2403350856284687,-0.3741732198514052,2.4734095519324777,g
-5.886483296395437,2.4891981378091637,0.9932673021826159,0.5138168939318641,0.06912537224140083,-3.2403350856284687,-0.3741732198514052,2.4734095519324777,g
-8.520199944104117,-0.2794672852353777,-2.251376339325664,-1.0230500856049878,-3.196034283784026,-3.838971064287498,-1.2876060642462144,3.2972101847154063,g
-11.591165998163955,-3.244611308353014,-5.854199259609215,-2.7462862616463033,-6.806301990853133,-4.363253983449717,-2.169620512900954,4.303399441021574,g
-14.597471308300115,-5.943468492276802,-9.267238109720358,-4.240095750641264,-10.229344434523508,-4.752549852878081,-3.370176045839105,5.446206184648585,g
-17.10876429832151,-8.01603020200422,-12.025405875401603,-5.189465250964279,-13.017413673888687,-4.94292984477442,-4.812886184619745,6.621030363890201,g
-18.91912863090051,-9.345322197305306,-13.933492479731395,-5.547595599417653,-14.976731390958136,-4.8980643391247405,-6.031742475803087,7.654271783465253,g
-20.036869477534058,-10.017176673534278,-15.045668115293811,-5.500555479458428,-16.140485524235125,-4.6475533398198365,-6.601412245177134,8.359598042308528,g
-20.55095375135882,-10.149682780832636,-15.481774057511075,-5.2620931782191676,-16.595232685044184,-4.276805081106071,-6.48479527566351,8.624767680940128,g
-20.492037836501602,-9.737793791023051,-15.24548659933114,-4.87821222460305,-16.319971696832553,-3.8560739311972485,-5.984498173803873,8.451727401831247,g
-19.787033997093253,-8.63761751382219,-14.192337923796135,-4.206155236927618,-15.171108560734343,-3.3820472734750657,-5.485624467133532,7.905127809581461,g
-18.33096071680223,-6.710776986751931,-12.175708090916345,-3.074761197726542,-13.028174371669696,-2.7963192182887058,-5.25254609066611,7.011926589365433,g
-16.115814321414824,-4.021863487751991,-9.25775939537971,-1.4831145879559948,-9.986847245610196,-2.0527880986094442,-5.29285512344154,5.7082398470964915,g
-13.312361207274241,-0.9176773439973319,-5.805783388726468,0.32483751722946774,-6.433400877652396,-1.1664870761693327,-5.317495763500738,3.891584916554939,g
-10.238273779018632,2.106293433311735,-2.3708321225394187,1.9684242472478464,-2.914018291666628,-0.21886052448623294,-4.972255441020761,1.5468388999907439,g
-7.239648257042896,4.667384084078097,0.5782531440814062,3.1476213159018993,0.12199927448649266,0.6759951335219734,-4.256229197833111,-1.1461066471588743,g
-4.5726238998376605,6.683096627397594,2.869796225958116,3.8214579150046846,2.5181431898451434,1.4443504953166966,-3.6545375157204383,-3.8066844534354067,g
-2.3475515096332567,8.34573045553542,4.643416060011361,4.223289795414968,4.411193283618706,2.1331693523971627,-3.7448189634641844,-5.969003646730266,g
-0.5406993207592495,9.922170959309293,6.175262327114226,4.7003256593572145,6.058489976935361,2.916730621255785,-4.693066621057511,-7.253905554272857,g
0.9438805220478773,11.536720514182466,7.651785213828235,5.4886653746824585,7.62797691029602,3.9925011858247217,-6.158872246169091,-7.488102245636524,g
2.1777194947594127,13.07750092495715,9.03466221550216,6.57220921911163,9.08152527144184,5.448559747950119,-7.553112746887171,-6.700558319567411,g
3.112277827546096,14.264647680808887,10.079239009005445,7.698075823041734,10.198611015796509,7.217422804371148,-8.262424579858344,-5.026484330887839,g
3.546611935335691,14.81579191219717,10.473776267843641,8.511020221238788,10.700364421663974,9.127964251590466,-7.7648888374114575,-2.6161469089169938,g
3.196248469340728,14.591298934846261,10.0028924986208,8.71536431916195,10.38609791183373,10.978474849295527,-5.799972012763456,0.3821025810127246,g
1.8296445271753814,13.625287968580611,8.63543095823126,8.1859198628195,9.203072177166622,12.58306867126149,-2.5065795451791995,3.7757310064495244,g
-0.6098769458740383,12.040909643416757,6.499100551959555,6.986720725818157,7.228112795156759,13.799422346973623,1.70023636360282,7.279007114039617,g
-3.9637762069326556,9.938569934743171,3.7841504548352773,5.298282931010363,4.601030937943574,14.53534228548325,6.39908274212616,10.510839318540999,g
-7.913486367236665,7.351810037648923,0.6520723423446769,3.302439560032603,1.4659392522834516,14.718996461058385,11.24162039877499,13.051189460621393,g
-12.09125927899609,4.290957774969771,-2.7979149214015187,1.102322465170089,-2.049506840974281,14.266106952508546,15.854153628454782,14.531569220209608,g
-16.173994670860427,0.8228319474774256,-6.49388077613097,-1.273070536716932,-5.81589355621609,13.101282427361046,19.88342322608233,14.712900592211898,g
-19.902363794291364,-2.8763037527495676,-10.313370035472662,-3.796776622939587,-9.660359311550064,11.217852879740288,23.195717280634238,13.51372668156797,g
-23.03736534461186,-6.524856971296717,-14.017860532794376,-6.362586813936912,-13.33193216267828,8.697932523771959,25.851224066568488,10.99731437586337,g
-25.33031075728604,-9.790856596299125,-17.258471732015032,-8.743912023488281,-16.510008243396847,5.675839430531607,27.750049244584876,7.361860057265025,g
-26.56316460474257,-12.368127810112107,-19.66765604436379,-10.617738980031577,-18.868026155030453,2.317489587282674,28.389856798165987,2.95123508822362,g
-26.6323705426103,-14.041360183363443,-20.987011665277013,-11.66123828350374,-20.164969632668125,-1.1499690482164717,27.115918408353593,-1.758682922182207,g
-25.601218281454116,-14.725566763567306,-21.15665925791171,-11.694281529718433,-20.320583910481798,-4.4319034661377845,23.664639830578828,-6.249926457149548,g
-23.68087960908155,-14.480525232485524,-20.322730950241713,-10.788928500745552,-19.442773813377208,-7.250435692339093,18.506980645401313,-10.103317477207797,g
-21.162397756010233,-13.494142852373466,-18.768270251333107,-9.259579645079,-17.795094842174866,-9.46407612686765,12.726155347605623,-13.093840664567276,g
-18.346546444103346,-12.023975711476377,-16.808443535907294,-7.525062358635192,-15.713973122601413,-11.110794326297942,7.481472118151798,-15.171364754195853,g
-15.505321787895543,-10.314263846921014,-14.708562581292815,-5.932453979481312,-13.515946820642636,-12.340772199703197,3.3206077126698545,-16.354852841500154,g
-12.883300217975284,-8.540974339016596,-12.670183455978535,-4.654419227374127,-11.449503058343854,-13.29567204213547,-0.19004330133942968,-16.632829677768633,g
-10.717453308760485,-6.823602961332961,-10.876605389189086,-3.707294853672251,-9.710383432800635,-14.00572587716599,-4.082666808413448,-15.947787628977391,g
-9.235076022643609,-5.283042444150392,-9.535319521205952,-3.0559457076557157,-8.479921482360496,-14.362414992273608,-9.00988659575464,-14.278056133831791,g
-8.609836675262097,-4.085834800794761,-8.863941418414878,-2.7263524713732337,-7.932104672300165,-14.207244951471017,-14.504961771117602,-11.758300352672123,g
-10.054919718841337,-3.4915692170719708,-10.093861663397995,-3.5762550803852475,-9.32963635679322,-12.420051089968172,-21.76854112161573,-5.67646714659641,g
-11.886977215880007,-4.302231642429779,-11.981620122493943,-4.982100048109269,-11.249454000764754,-11.292870945021832,-21.893168833150924,-2.989893359807616,g
-14.163907900543421,-5.707854179985015,-14.478749047397196,-6.934433830571734,-13.749751339214606,-10.374563444277413,-20.35975114057367,-0.8571457126937524,g
-14.163907900543421,-5.707854179985014,-14.478749047397196,-6.934433830571736,-13.749751339214606,-10.374563444277413,-20.35975114057367,-0.8571457126937524,g
-16.609650809224796,-7.3731591689368745,-17.24768882440153,-9.120751117215987,-16.496195640052925,-9.704199105466705,-18.480828142567052,0.7645133439006386,g
-18.939201317461887,-8.916339587394312,-19.890974807887112,-11.154044743845358,-19.096990738522056,-9.133391759855332,-17.11361555585681,1.9990115653001734,g
-20.903571982504587,-10.087068886071899,-22.05889092124442,-12.713491995738663,-21.21640033661247,-8.492625673749743,-15.97269194948698,2.8772393194918986,g
-22.330052728124052,-10.862496915142334,-23.54808248299755,-13.645948586935717,-22.671913531721355,-7.762429214700257,-13.845804386061875,3.261801172242219,g
-23.127410165672384,-11.385896307049142,-24.326519222525175,-13.982333468207111,-23.450128536725835,-7.139824600771727,-9.722283960404633,2.9277993847033676,g
-23.258890685786252,-11.801458800178475,-24.471340397914695,-13.860675530551967,-23.636012368352045,-6.9493666563095005,-3.941538964285665,1.750770969665957,g
-22.715683888919,-12.116439681763072,-24.067675494720625,-13.402097001854788,-23.310427943155425,-7.433889162009952,1.7217876608049196,-0.135769705672892,g
-21.51465016049764,-12.184247936538931,-23.137679269620627,-12.62770600711607,-22.48336970546084,-8.565988598924807,5.182876948940319,-2.3511404030761622,g
-19.719212222172498,-11.80627178801784,-21.64750827238363,-11.480455963719894,-21.104674518109324,-10.040366385256421,5.434251698116265,-4.460851078980025,g
-17.468703634777526,-10.878092574751314,-19.591721811211436,-9.930539293856011,-19.150497466531018,-11.465170594859256,3.1238146699296268,-6.2065610866300585,g
-14.99081398827865,-9.481744717174745,-17.093323758190653,-8.07125554741881,-16.72742349868958,-12.592953000178115,-0.009049001925502153,-7.585783217890308,g
-12.564794169870513,-7.851837097688142,-14.425167952390556,-6.119606874736441,-14.10038272590335,-13.411181244770813,-2.4031790045755925,-8.72273285962159,g
-10.43229049441311,-6.2292790902804756,-11.910175269314179,-4.314463618422165,-11.595992484496437,-14.05169917405442,-3.796221346299852,-9.651604247058929,g
-8.712694291697339,-4.718753660052917,-9.771870201480066,-2.7928312202371135,-9.447763758178997,-14.615004901201004,-5.323595731406345,-10.206034292711418,g
-7.396665607036233,-3.27751434732827,-8.065427864479087,-1.5526194676918483,-7.716334752140147,-15.04120729356383,-8.368703417445174,-10.118706340523616,g
-6.424080219635558,-1.8441372832431377,-6.7458977884277855,-0.5445403211908195,-6.350602260260685,-15.122341736546403,-13.077007610259955,-9.258541570045981,g
-5.773102609168372,-0.48302761278979195,-5.8004747808080115,0.183462061515785,-5.324044937859918,-14.664929629836209,-17.937322169674196,-7.809142678130648,g
-5.487598427700453,0.5849020920686252,-5.322580814441056,0.4312457861695253,-4.723402286090736,-13.68788081636841,-20.858700967893018,-6.227828992732687,g
-5.635434685297499,1.0837955367937298,-5.4690539220425975,-0.04483770324826151,-4.7212815724274835,-12.477897131019043,-20.692632565953865,-5.003467425609572,g
-6.238051633898279,0.8334672919703575,-6.338094469278405,-1.337361530127629,-5.456257347878796,-11.434592813691836,-17.857470846593685,-4.403496351357822,g
-7.216279414572479,-0.15308180931982693,-7.860689481391207,-3.2748360908813003,-6.90558306410203,-10.84001431572243,-13.77833420715574,-4.406582226445562,g
-8.387572630862142,-1.6830615504429172,-9.78986749461949,-5.492265721667751,-8.844182402617196,-10.7525964684578,-9.867052653419755,-4.848839026945094,g
-9.525407497874976,-3.4904669353598594,-11.800912544667332,-7.626610785688236,-10.926388498019536,-11.080568384459252,-6.8275917631630705,-5.628194649034855,g
-10.440934837960123,-5.345886128286174,-13.620959800158934,-9.473316335331969,-12.826771932430583,-11.720318590205391,-4.606947185459053,-6.7811307288285025,g
-11.01831507855021,-7.078716819390381,-15.079701722206043,-10.982965487667094,-14.325498491808975,-12.629347369085574,-2.898073021229504,-8.380706512622318,g
-11.183566326637106,-8.517805247107804,-16.059899717815323,-12.124548504090617,-15.2896877064755,-13.799026930376609,-1.7523705108550292,-10.36689047425001,g
-10.864862339527223,-9.452263736330368,-16.436000228831894,-12.762028313187269,-15.615088693117524,-15.171015020475966,-1.7008500962702393,-12.469693262340387,g
-10.00706395635158,-9.687868058288954,-16.091148755384573,-12.677031220806043,-15.218337402004087,-16.573278409828106,-3.219957125570226,-14.297597590120128,g
-8.62933400271928,-9.15698849636928,-15.001627395500112,-11.730800733006038,-14.090609538735782,-17.750671139935275,-6.137412603806465,-15.523679284368026,g
-6.8623531869355805,-7.978864410085471,-13.301432272205579,-10.01921677958532,-12.349581322612913,-18.49766288367742,-9.672935222006377,-16.02509001919409,g
-4.927333986977468,-6.422001034820347,-11.26443961457851,-7.872806817243445,-10.236074952040054,-18.787756839372214,-13.025527570018687,-15.878879516259014,g
-3.0710687643051306,-4.803429471404395,-9.21458244546288,-5.695047315938124,-8.054660601761423,-18.770867988500477,-15.815162576824898,-15.24342696678691,g
-1.4916219046650794,-3.384473762684982,-7.417687589873415,-3.773331285389949,-6.088416694406182,-18.63928315359002,-18.04337637075711,-14.240809155680548,g
-0.2880323822495572,-2.3059213619634322,-6.010988048693418,-2.2014002785112208,-4.524256165357871,-18.494618997296097,-19.8823398815114,-12.925917335264506,g
0.5359809157783879,-1.5885030319072997,-5.007181699943523,-0.9397040075142045,-3.426112411641661,-18.319679095655296,-21.57959738130554,-11.334193332573943,g
1.0100720384924415,-1.1977381283216622,-4.36908519816193,0.06104725959891706,-2.77515286062787,-18.03620682852348,-23.344111094920194,-9.548119966904126,g
1.1230539789511378,-1.1276545971162364,-4.099598545639233,0.7638664910377542,-2.5498430223351853,-17.583174933310737,-25.09928050375736,-7.739845456274031,g
0.8022075329536398,-1.4392273044284587,-4.276456489006945,1.0282546143389135,-2.78334582635611,-16.98661261660568,-26.358487282041843,-6.17328226947273,g
-0.03431008959575506,-2.2272904577773636,-5.006761056332566,0.6756218150806508,-3.5528408996619865,-16.39630240579524,-26.463689775418494,-5.151178387819053,g
-1.3967992972240375,-3.5438624738121987,-6.339456576398292,-0.40268846466088243,-4.908379639496895,-16.04055010623522,-25.02117054532682,-4.908510283248227,g
-3.1761319100733454,-5.325394198689654,-8.197257575091312,-2.1637650356460503,-6.790179261293329,-16.099424060596164,-22.21505883805981,-5.502144824871392,g
-7.094902605129631,-9.348182122243543,-12.57304421000038,-6.8701014025336375,-11.206523328641087,-17.373555051394245,-16.235175434309543,-8.423337942497351,g
-8.791722757233725,-10.977552427448172,-14.55246522941656,-9.278295263435918,-13.139187731770352,-18.221053288514916,-15.355819277285352,-10.141553024473357,g
-10.16654146137665,-12.07942297873322,-16.15714544513283,-11.448633844297984,-14.617017650021234,-18.933859410715815,-16.380063289619123,-11.733181926024738,g
-10.16654146137665,-12.07942297873322,-16.15714544513283,-11.448633844297984,-14.617017650021236,-18.933859410715815,-16.38006328961912,-11.733181926024738,g
-11.232130137598485,-12.653986818105237,-17.341277451403748,-13.271440420980985,-15.61255556464108,-19.396864566863847,-18.33580581097767,-13.154774869843603,g
-12.02054264452414,-12.809254716208452,-18.091372642494427,-14.6741651518151,-16.167330169467565,-19.608572779799534,-19.79710618115969,-14.45918446183345,g
-12.507691964516443,-12.646063420736597,-18.35069771669734,-15.56875410457788,-16.285497851937414,-19.653325705871993,-19.906692453561494,-15.680249746998493,g
-12.589808679946023,-12.182113880659838,-18.008943106971167,-15.83130072882546,-15.887768035188591,-19.61388554166594,-18.874807886499546,-16.73844707100357,g
-12.11831962291225,-11.358842379693105,-16.962841542142662,-15.341774320488195,-14.858195165899051,-19.49404784310749,-17.65375204748365,-17.445958338127674,g
-10.969008973253684,-10.112233642321778,-15.196084121474163,-14.060669184134415,-13.14278920616976,-19.23198843899212,-17.206855615257535,-17.616061979358467,g
-9.115061299642637,-8.455208091475944,-12.819772617234738,-12.079108904055097,-10.8251131731414,-18.780175267149126,-17.898992764303074,-17.19031502196167,g
-6.6715474255765965,-6.516271353078065,-10.047509009258304,-9.600235902321828,-8.122866803953581,-18.149933251926424,-19.29356875473929,-16.280074796941648,g
-3.8848533939723695,-4.506191225660235,-7.124756239739833,-6.873122458470751,-5.307997944434156,-17.38323396143154,-20.46717674502349,-15.093375544898313,g
-1.0697066823797015,-2.6388215361714358,-4.265992478989325,-4.134409097245469,-2.6150741589456112,-16.514613373894964,-20.68811768198847,-13.806490842555087,g
1.4715897123588824,-1.0703713398651122,-1.6456430948262017,-1.5876940227741465,-0.21095769700540642,-15.574531590313095,-19.923133819039503,-12.469767269612364,g
3.512290726051154,0.10418566312744604,0.5665392721382805,0.592162371259026,1.7670952581169597,-14.608747533373727,-18.702935249202085,-11.008049349371444,g
4.9320253562226615,0.8207895328640203,2.184757344587807,2.256988623809654,3.1706633903560446,-13.67856323680051,-17.55291532605342,-9.318097934304486,g
5.7096880650293675,1.027643704553633,3.0424020658878552,3.298440512804862,3.856296884928336,-12.85143932918586,-16.64622355589569,-7.402139203928075,g
5.876861057277816,0.6915440583487689,3.0584420543300483,3.669233284970983,3.745116504764263,-12.191856872111206,-15.930842782842916,-5.441749342294472,g
5.457002873872944,-0.18730341626470043,2.276730254662536,3.392270608635397,2.866297777692522,-11.735201799768513,-15.34949396988517,-3.7514109400859015,g
4.442674890063804,-1.565788981600973,0.8493925793705996,2.539549747202373,1.3492277997557771,-11.45668230403364,-14.815209873583862,-2.644438436292135,g
2.8382713142658966,-3.360356934334445,-1.0206987256299571,1.1874038121113284,-0.6244336131686604,-11.292664908910025,-14.101773817113212,-2.312033573120873,g
0.7312614937811912,-5.467173444211496,-3.14490048461084,-0.614209055878219,-2.8764467818311448,-11.224951422865152,-12.917217768459102,-2.792745593054535,g
-1.672852017467728,-7.785773906459463,-5.3837493475168845,-2.8207180046973255,-5.260095087289303,-11.340831780017087,-11.107973433012457,-4.025705429589594,g
-4.07723492424155,-10.206481125597007,-7.621219193456376,-5.3256094403997505,-7.6342990613011406,-11.786548181064209,-8.818475015328861,-5.920321120355682,g
-6.158097268629627,-12.548803826291214,-9.68985763165556,-7.899719532963504,-9.798782683841377,-12.647922694537826,-6.590638779430177,-8.378488319734156,g
-7.635920758849574,-14.511831810132614,-11.319101377368352,-10.196309479283922,-11.460505901000476,-13.859901119629217,-5.361613061120005,-8.809960216144633,g
-8.336446549526089,-15.72093799248464,-12.182639058128501,-11.841325766135949,-12.297262566094682,-15.195393268207662,-6.143690867255785,-9.292140157064297,g
-8.222944943282254,-15.874109931869706,-12.03726261064003,-12.572898288009432,-12.097870397957294,-16.320227319575416,-9.377691866498834,-9.673111779918294,g
-7.382402417941459,-14.889545329187403,-10.855831873273484,-12.354744218704596,-10.877082248103688,-16.899627997272244,-14.450398213333724,-11.946174849970497,g
-5.975343992325135,-12.946973140346069,-8.85552825291401,-11.388057437105697,-8.878145547423252,-16.732974709473346,-19.8890926053234,-13.417368078935292,g
-4.181691660615077,-10.39665673280506,-6.401472644564791,-9.999517883765447,-6.463261201286825,-15.840465754902215,-24.121189353796005,-14.083066414373665,g
-2.161001473642354,-7.5954436145218605,-3.8458223278344192,-8.468721102021652,-3.9617561881876044,-14.425534722703741,-26.207877441606048,-14.114951285731554,g
-0.025358727776286828,-4.767606806690293,-1.3965299894576333,-6.9115174513690025,-1.559568306695063,-12.740874210577543,-26.14014171378444,-13.704648304481992,g
2.16509779682925,-1.9781046456842304,0.904690464656688,-5.299883252824951,0.7098677279220021,-10.97171375916071,-24.666744765733068,-12.931069728465848,g
4.364378715627325,0.7606751920935271,3.0820331564129093,-3.593683068179142,2.868323345233159,-9.207859330133521,-22.74885258477614,-11.75147800113744,g
6.480913744138334,3.336054483761861,5.087231685141944,-1.8718046394314194,4.864158024643032,-7.482770285367053,-20.86003838347254,-12.557625831680292,g
8.362896722917132,5.480771502124828,6.751203237240628,-0.3524973067648209,6.52746202824031,-5.83499743203172,-18.633601066105605,-13.09223093930638,g
9.863378478936582,6.8806269108583376,7.873430753763195,0.7169901693653602,7.655506853010929,-4.368698778495192,-15.271356587529823,-13.388516910318538,g
10.926077010622587,7.349768992026523,8.357987260730805,1.2132501990052464,8.146865599893925,-3.2767009541223735,-10.416915743871957,-11.405259379056066,g
11.598191869809652,6.916533874195954,8.26155370628293,1.2050727616062147,8.055188120484294,-2.781920161626745,-4.662053092440193,-9.855439875391957,g
11.954787998741518,5.7631866690662505,7.720562685237321,0.8815040094221039,7.523052657028873,-3.021054754371008,0.7377330983551929,-8.81754054966119,g
12.016863429131812,4.105172239102799,6.8504011687367115,0.4102637783978397,6.677615041477007,-3.965917422733194,4.539508133892911,-8.217349745557652,g
11.748476381466256,2.1275672996120116,5.722012469041986,-0.14263872946225303,5.592126369652111,-5.437613878080741,5.990063769322014,-7.9192488369952825,g
11.133656009791707,0.00932219871608666,4.4243579265587725,-0.7748132592571775,4.334715765740226,-7.170513473095926,4.963323532748655,-7.797968393624835,g
10.256471418513952,-2.030385639425522,3.128360957151503,-1.4617580946277224,3.036205418493373,-8.870646326512809,1.898893385581657,-7.760382421975869,g
8.4784876342885,-4.933121855116478,1.4230026382575578,-2.7120871362594756,1.0940134422661774,-11.222636599065446,-7.256780455197382,-7.7815379092364,g
7.8787471637725845,-5.5301375909924655,1.2313178050735492,-3.1908357949186597,0.7135088123789111,-11.675760689226427,-12.136895113659621,-7.895441671108689,g
7.460764938416709,-5.579648311060811,1.3750139944006743,-3.5880199433252367,0.7035108993024838,-11.658931875061768,-16.884397126755054,-8.130049148134564,g
7.460764938416709,-5.5796483110608115,1.3750139944006743,-3.5880199433252367,0.7035108993024838,-11.658931875061768,-16.884397126755054,-8.130049148134564,g
7.111420680443956,-5.136417762215769,1.7157797412466038,-3.8911043723412613,0.973514816103925,-11.162198454043093,-21.394612366370122,-8.415312480098821,g
6.775159145242377,-4.1781673857591395,2.229294673053665,-4.011685292405049,1.4999665090049512,-10.119611294601068,-25.433183577437887,-8.5484440035891,g
6.51325747072242,-2.6504296016235953,3.0138677464656025,-3.8291934893913195,2.3426664059634517,-8.48288833132712,-28.443756892407265,-8.285071574874078,g
6.448292791343438,-0.6220424184936764,4.157351931004768,-3.299503400310833,3.547235109161112,-6.321438113352581,-29.469510574190743,-7.518240522444577,g
6.663792789430124,1.608517427160871,5.596531863172014,-2.5320593050713973,5.037036264178544,-3.8766305818982914,-27.504915910790267,-6.414476112389162,g
7.159285134799977,3.593713513308478,7.113425687562623,-1.7422080698217477,6.613288432766136,-1.5333196511835272,-22.29067950953666,-5.3632649989606325,g
7.880654255591596,4.965611146331494,8.472223945515593,-1.0948591453638703,8.067920252014481,0.30388477338129294,-14.856164356381402,-4.7317319818276875,g
8.764790121216867,5.625413405058337,9.562868918253212,-0.5805207484218005,9.298169032600603,1.3826070248417657,-7.070042654297611,-4.610297998231255,g
9.746588296219503,5.739045254834605,10.423148783099457,-0.05457830196068456,10.31762017576469,1.6958022237896042,-0.447764591811093,-4.777552927214982,g
10.741093154399671,5.557863010773178,11.13924048213416,0.593143923871863,11.168896252868857,1.401187214736745,4.671574170746782,-4.916992483109202,g
11.64579134931407,5.228351953098995,11.736895844571489,1.3128675662393898,11.83846315800691,0.6425589912243401,8.838130296943385,-4.874974241687811,g
12.380624658397036,4.745866305542779,12.169052167476895,1.9401921059901508,12.263070952652823,-0.5421965306452928,12.47899094754386,-4.723699332412526,g
12.935891293858177,4.0657297744108005,12.398620820514864,2.3576048405523933,12.417023793202523,-2.1481789689342228,15.148847645660036,-4.6043368736209525,g
13.377196660291265,3.2421138392654614,12.476071113238586,2.6063843711621564,12.380293191439183,-4.074508342314335,15.695127329800215,-4.533672883312034,g
13.785664906662955,2.4524997264342465,12.521121997856014,2.8486138170891753,12.303922726011086,-6.084221871020817,13.230329175311363,-4.359072153168193,g
14.177600802818677,1.8937236132268858,12.629430228615561,3.230281610296946,12.302438120455632,-7.879936331066697,8.151067953149077,-3.879978473165746,g
14.485868080184648,1.6670199561015184,12.813705979557795,3.7769613641479878,12.389586804675787,-9.225770663352625,2.2594141916183923,-3.0059332874557323,g
14.632675566452273,1.7594149136401473,13.044749172429102,4.404273600696016,12.525695609140486,-10.04281808948117,-2.3300987543144074,-1.81430029468181,g
14.62097132803701,2.102716904626577,13.332167201040628,5.01265541118159,12.713156526337999,-10.427840987455443,-4.663747685370022,-0.481096664970209,g
14.54417034727567,2.6149633235127796,13.735907801688247,5.5674482303111965,13.021739899650665,-10.571644444074957,-5.471506422282141,0.828106869812936,g
14.505137623534967,3.187719013977322,14.288559696589601,6.095288792801559,13.513023177036464,-10.623143394158113,-6.3004859120459455,2.005059773532527,g
14.533816901878179,3.6760453379016034,14.91873982381784,6.618406823243051,14.150627525002477,-10.606509602326485,-8.164554030642535,2.970536937492235,g
14.582395797087646,3.9465665480504613,15.465821675568359,7.10686407399992,14.793947043361673,-10.451089459761695,-10.89164907601479,3.64807587555993,g
14.588896173243109,3.95772563390888,15.78024438743628,7.497742025515999,15.283367738972885,-10.079144828928008,-13.461311995069943,3.998948776927088,g
14.545287142206956,3.796582610517478,15.825029953735685,7.750256209326499,15.543233798559012,-9.465954598555289,-14.80522510209305,4.074623357428611,g
14.519992123320444,3.6293521229180854,15.698229494791226,7.870729701457149,15.622690897959984,-8.658331896455417,-14.490717323544107,3.9961409265759213,g
14.623038621793011,3.5942745427638827,15.560824033476228,7.887173239209757,15.648130908620146,-7.774793901475275,-12.970081905088842,3.8539090188602687,g
14.936539693682224,3.71444040830709,15.527834416007067,7.815974489387375,15.72893455398945,-6.970168931500439,-11.255006872690217,3.6325007729754994,g
15.460013737088072,3.9007635969140564,15.611555025603746,7.665062685672888,15.895252247764649,-6.34732367221432,-10.183820784560188,3.2536001667641963,g
16.115015797164766,4.046279485318713,15.760922621923294,7.465562182187563,16.116482317624786,-5.880777559534709,-9.856010693987372,2.702548211189966,g
16.802928948735946,4.128746715975694,15.94901530974435,7.288185325431042,16.369376085167467,-5.444630497871256,-9.725865955137596,2.110365950044106,g
17.461254037503924,4.225627989156226,16.21511385225885,7.21873851564129,16.677700178453865,-4.931768346190123,-9.18840483681878,1.7040545375666654,g
18.07311858533042,4.432316505640714,16.622385981337583,7.308822206877849,17.08585404712438,-4.347722988682669,-8.06560262443529,1.6609281971933751,g
18.63255787416545,4.769754524078033,17.180712318154963,7.538994125081258,17.602671458707604,-3.799634544297831,-6.690365283372211,1.9877392351674068,g
19.094150114964645,5.162464794726263,17.80363324853245,7.819778068799948,18.167394281665274,-3.4102051327735188,-5.707062106703782,2.524174114558871,g
19.33308039194689,5.481377224745012,18.318080964267885,8.025182556342433,18.648359217364543,-3.2296750748846597,-5.7087086381416094,3.064098580235038,g
19.146615041470714,5.594789755851432,18.509607803498618,8.030343787971889,18.86340717746557,-3.1958930664024425,-6.785906718334428,3.4865053022194568,g
18.32998841168224,5.402069568444598,18.19383926134778,7.732780272863678,18.62938974521934,-3.1709324595972497,-8.326146565858046,3.786590847469416,g
16.810859987050144,4.863367916736008,17.301451458137066,7.065962947596619,17.84404274965119,-3.0457183771606777,-9.426653757151914,4.000599173017376,g
14.749088474870097,4.023193787464235,15.928213192805652,6.022178011169334,16.555426531060636,-2.830929395786251,-9.651891434209654,4.117278744720142,g
12.502946790927169,2.9992598925119704,14.297434472668886,4.672277229630743,14.953536842512666,-2.6362036171066343,-9.351343029091355,4.06064597367587,g
10.465326635698208,1.927847798012186,12.646296331125592,3.1474375318569097,13.274897884873715,-2.5504140568565714,-9.20686373797185,3.739788933483191,g
7.785731358917166,-0.0808156041543441,9.710388563392659,0.03811298187029921,10.228408303069362,-2.5413466042883943,-10.090776206550355,2.164832465143316,g
7.040003411920279,-1.058546511909966,8.366042155529447,-1.4527686513888691,8.851077865942827,-2.434597163331781,-10.232251237315126,0.9945839186481175,g
6.49967469864186,-2.0696592572341297,7.040831470927363,-2.874680355950401,7.511602433808497,-2.222964252408464,-9.499699312137356,-0.2821327310777594,g
6.499674698641861,-2.0696592572341297,7.040831470927361,-2.8746803559504013,7.511602433808497,-2.222964252408464,-9.499699312137356,-0.2821327310777594,g
6.121882328638286,-3.056554442742247,5.7950459420420355,-4.158478905863919,6.2596247327223,-1.9551513969623535,-7.934367240472021,-1.5063220210937351,g
5.982794258246232,-3.86215437812785,4.7712585648226185,-5.191216509530065,5.232470564398428,-1.6923061789814278,-6.114352786151017,-2.5215105326953986,g
6.1762564493751775,-4.329375814906487,4.0833647486896485,-5.873532641711365,4.550138628503451,-1.4695136760833347,-4.687555117847735,-3.2219015564797884,g
6.679869386879011,-4.43867505671899,3.701588067110167,-6.18651482548183,4.196011096312949,-1.2808348293685994,-3.734927633534325,-3.5881326011451042,g
7.304475021854135,-4.356878514199655,3.4392157670988963,-6.219224511372611,3.9940819264637755,-1.106030660107337,-2.663672731926901,-3.6861743142243895,g
7.770391541683021,-4.343694592870817,3.0582623667911366,-6.130141154573402,3.7056340453447367,-0.9674824973359547,-0.8585595464560569,-3.6218859965971233,g
7.847542317890438,-4.593474028946964,2.4069456664580633,-6.059344083141329,3.161996799992816,-0.9539262162834371,1.5977924751882806,-3.4756830500055855,b
7.461765117173907,-5.135928810577864,1.490194104355171,-6.050879672749073,2.3378991420539794,-1.1680407101842927,3.9300705192547007,-3.2653590321487607,b
6.715901537858369,-5.850179467440154,0.4453540587317467,-6.043536443294764,1.3394806114161284,-1.6468954428550966,5.3050347972062,-2.9661232478811437,b
5.830878687696364,-6.556517840726947,-0.5424978889460361,-5.932649842964819,0.33672783877535606,-2.335915966582083,5.354995022604859,-2.5636004241444725,b
5.039048875017366,-7.118029855398982,-1.338041127669097,-5.649746098884106,-0.5240364086318937,-3.121619215968578,4.207721379594586,-2.0879092371334855,b
4.4766420115502665,-7.500501674723585,-1.9229432608841983,-5.206312543042988,-1.194342903812899,-3.869996994473462,2.2569935109733477,-1.6078370303756766,b
4.13043329996305,-7.7678376989908955,-2.3949639026058995,-4.687108540814242,-1.743032969611884,-4.455401692707224,-0.05981849804776758,-1.2071542247393072,b
3.871038125455057,-8.022045105063375,-2.890438737427562,-4.205634113430108,-2.2967610836549617,-4.802167981788345,-2.4462452503550716,-0.9646080619983272,b
3.550915255666766,-8.326892251410905,-3.476559178577374,-3.842903344073555,-2.9337464115826086,-4.918422753947706,-4.802179325568632,-0.9342381515859077,b
3.1014710518613264,-8.663393385215366,-4.092896241814426,-3.6057537369757298,-3.609977532101702,-4.8715512455722845,-7.008011021303917,-1.1252852757505356,b
2.565877020027395,-8.944905599334064,-4.593570295946358,-3.4469232450444216,-4.182751835760071,-4.722684013021359,-8.654488397195221,-1.5026292080133288,b
2.046867080525021,-9.085060006582584,-4.868804887397214,-3.3451169461262387,-4.526005440927375,-4.501176602861035,-9.178003339014872,-2.0188446757231895,b
1.6060153804798112,-9.078859742742203,-4.958831062191056,-3.373388576539829,-4.65560667204056,-4.241594820666624,-8.391241575758965,-2.6498314651122903,b
1.1938048888750976,-9.036472954420036,-5.061361337366696,-3.674799396167606,-4.7562839406520485,-4.0117960166631565,-6.79315509158228,-3.3950521182756406,b
0.6813440297719687,-9.12390029643569,-5.398724332358652,-4.34533075870909,-5.059826463038216,-3.8817083575657056,-5.251391203203864,-4.239562912299272,b
-0.012709284820651322,-9.4313610164842,-6.02548478244557,-5.315173167521695,-5.646159998845864,-3.8753041948594573,-4.412451287110779,-5.110904314673709,b
-0.8009787230259711,-9.866846745991753,-6.732171936806355,-6.329223107654312,-6.328956918899535,-3.9600948257213853,-4.430151159600223,-5.864481990624793,b
-1.4287335347300592,-10.175068465001207,-7.146847980020725,-7.055706823472107,-6.742763267276767,-4.061463430905337,-5.112547257373169,-6.315025288871295,b
-1.6201570408351487,-10.086345453509225,-6.976117051458881,-7.263406278937381,-6.583491848316757,-4.073227455969007,-6.18291063457898,-6.31522340338763,b
-1.2700148769988528,-9.488967947534093,-6.202406642229343,-6.956367289457312,-5.816615357022288,-3.8821348299205334,-7.436628999627286,-5.849197365766729,b
-0.5399563800812144,-8.497087747055216,-5.085618481569861,-6.3686406932432025,-4.69150287354345,-3.4207543176154838,-8.751195127085795,-5.069857835628196,b
0.2161911243935267,-7.369912586297208,-3.9763847975579294,-5.810950735813262,-3.562418829884419,-2.7043010731111736,-9.947570753507156,-4.227693834999021,b
0.6572424806394894,-6.350908530946172,-3.093403866427611,-5.478886367454319,-2.6672817928534327,-1.809649622223607,-10.64250416539456,-3.5301435563500108,b
0.6542430906807043,-5.550401523905045,-2.4333815346462373,-5.371367462437283,-2.032106969396254,-0.8311788418159625,-10.375489668158979,-3.044316580059704,b
0.33984863640347307,-4.953650687968353,-1.8675109541580894,-5.373538683243569,-1.5541584023449064,0.13153718168037862,-9.012644417255952,-2.7205173213949445,b
