Fz,C3,Cz,C4,Pz,Po7,Oz,Po8,Inst
23.6149349796055,5.654902086208571,9.339031958161474,3.3313775663753296,9.635851422607656,2.625856374434451,-7.020408717382362,-6.352007486442001,g
23.6149349796055,5.654902086208571,9.339031958161474,3.3313775663753296,9.635851422607656,2.625856374434451,-7.020408717382361,-6.352007486442001,g
23.6149349796055,5.654902086208571,9.339031958161474,3.3313775663753296,9.635851422607656,2.625856374434451,-7.020408717382361,-6.352007486442001,g
23.6149349796055,5.654902086208571,9.339031958161474,3.3313775663753296,9.635851422607656,2.625856374434451,-7.020408717382361,-6.352007486442001,g
23.6149349796055,5.654902086208571,9.339031958161474,3.3313775663753296,9.635851422607656,2.6258563744344507,-7.020408717382362,-6.352007486442001,g
23.614934979605497,5.654902086208571,9.339031958161474,3.331377566375329,9.635851422607654,2.6258563744344507,-7.020408717382361,-6.352007486442002,g
24.177120858801295,6.016174620606487,9.877918136025835,3.346120012453228,10.235474543960542,1.9024776389523808,-10.5529867884356,-7.938904137963279,g
25.023273571098986,6.672405844036705,10.579426734674602,3.558547763895267,10.89657255136622,1.4466035831831168,-10.370720334286656,-9.594035669590976,g
25.960238283208344,7.397839214253383,11.272414712872685,3.768311285445231,11.495671991896714,1.0830741942128739,-8.243523672539249,-11.317724768990125,g
26.838353705245755,8.115736577619462,11.970896450894097,3.9372828673114997,12.093176403914006,0.6500059570024341,-6.747842479389369,-12.999549806035688,g
27.68522549461225,8.993527178515865,12.882115283396383,4.253937682132369,12.9197807063071,0.1757996056186971,-7.559698624525403,-14.387524505954252,g
28.664282696145854,10.309353431151688,14.245916385863188,4.982832199623255,14.218342586449001,-0.13018847163379083,-10.58079199801232,-15.177505421808258,g
26.525592458978586,12.183044057522755,16.11583593160461,6.205994787065448,16.044609801180655,-0.0475811665791477,-14.409687250261618,-15.178155434413615,g
24.365082617088696,14.392438567989753,18.24821225938093,7.673932561999228,18.167240698835894,0.49008748578106215,-17.555154196054815,-14.435225237921282,g
22.13085186313446,16.43581189048138,20.189446043753147,8.906167177910826,20.142951254185764,1.3648809366287795,-19.3661290069468,-13.218823589293189,g
19.7548004449799,17.80686124577932,21.51007791286306,9.481609323477524,21.531923818653226,2.3746096934384706,-20.13487215130943,-11.873243361228393,g
20.069989138310934,18.2794942634609,22.026815272632167,9.302409872138163,22.120967985057828,3.3694953885915973,-20.545853012057698,-10.629581720262797,g
19.825649990981432,17.990916641747916,21.854885022849484,8.627852448048264,21.998402476007534,4.327382198394817,-20.99567980996205,-9.512577682083421,g
19.157640800123225,17.27175502055417,21.25658058460916,7.852324290394774,21.422326401964376,5.321533355638688,-21.267279095645907,-8.40695000099306,g
18.158575872658094,16.37125539786678,20.414044879671508,7.20502047152704,20.591635083977703,6.412524908121251,-20.753367234899848,-7.228621083548079,g
16.802906350269165,15.29841713441389,19.3144147985279,6.609094852949167,19.513685872126622,7.556362792897373,-19.001428375818023,-6.063988898487536,g
15.014394882273375,13.889668855479659,17.83095367510047,5.800640613941956,18.06960399448979,8.605272660695118,-16.08543795226685,-5.164811755305761,g
16.18336556192545,12.02398521163897,15.912976417625538,4.593840886019538,16.20003484413352,9.388985872372501,-12.502517074616097,-4.800446777483989,g
17.344178601467352,9.801304989361523,13.720365502462162,3.0737080193399677,14.04681984462924,9.796221002033317,-8.764284079312633,-5.0798267213192005,g
18.621716122728735,7.552412312041724,11.605690172210855,1.5766446991154683,11.947424081713446,9.797214127764638,-5.078298801633599,-5.875522480106221,g
20.093872772860617,5.689005119661672,9.968838855842161,0.49049365380219945,10.297304700755557,9.413379991241241,-1.3335758516289276,-6.9045154476491275,g
18.893537204018102,4.50842672936832,9.08192965401447,0.025321188718407227,9.37173805431449,8.670554415451283,2.6560702914556837,-7.910078759298931,g
18.2038611742661,4.075021626494307,8.98250635320153,0.10659717279559495,9.211742141233568,7.564548456766273,6.806916439745827,-8.81995535538859,g
17.779328488665833,4.23220111123959,9.486058367757362,0.4502389560707341,9.638176580738566,6.060372453932116,10.528210685381586,-9.767065246863778,g
17.375267426617864,4.715627305165029,10.298180128897446,0.7582816259810762,10.373504979421622,4.135062718889714,12.817801337134492,-10.949282718256388,g
16.86018204065637,5.287739989250977,11.146681938641954,0.8945927106608795,11.1739725506621,1.8386667610604193,12.724362387820628,-12.426106402071259,g
16.219836521356733,5.820244244476736,11.854444353892914,0.9208443313484957,11.884084565425919,-0.6778719588219534,9.877269821537519,-14.010828192143112,g
15.481193047235067,6.301575960179829,12.339332205763258,0.9892057094338391,12.417316910494602,-3.190282148957987,4.680690841884905,-15.349363928623456,g
14.647632290422871,6.795103903520472,12.588307211351522,1.2027505026659058,12.734524562670902,-5.4527630936173175,-1.948085879556535,-16.12492689420944,g
13.705014293471574,7.383024160259683,12.645950369426592,1.5609478456715922,12.85905025551738,-7.235223401445043,-9.049475544954385,-16.2267415899858,g
12.671651664694677,8.11231996740171,12.60881398194042,2.009888964343541,12.892873373510392,-8.347046332021964,-15.954894247011698,-15.761370835814379,g
11.622134520754832,8.95157295077712,12.596444920354903,2.5219620651191024,12.981983355568392,-8.669249452015661,-22.300633095027365,-14.920490134133937,g
10.652981840461337,9.77786066312205,12.69535177755086,3.1215767617344725,13.230938497126937,-8.192583020540212,-27.7771360365793,-13.826269822043539,g
9.822617805766651,10.412052679924935,12.905434055535888,3.838687829337026,13.62062031683421,-7.035398787240166,-31.864998861066415,-12.476561150766765,g
9.12053882274509,10.693524321948372,13.127770534712496,4.64110495377122,13.994137397315844,-5.4244130540562905,-33.866307395570985,-10.821879136529514,g
8.487930231694117,10.553765162687863,13.212135943819803,5.414167307767969,14.137797597870522,-3.6407099955156546,-33.31668966420422,-8.900397151900739,g
7.861360996366163,10.041239652517286,13.038309745809215,6.010932266419161,13.910075675933161,-1.9437223163834183,-30.452118727340803,-6.914849083647686,g
7.190025014629455,9.27507279416952,12.567819844827454,6.32708304656523,13.314340482344353,-0.5025684887240557,-26.239861441410476,-5.186708523885846,g
6.40855354629292,8.351888497385385,11.821272159100772,6.33044474716487,12.446709814243594,0.6202479078995493,-21.8542968984043,-4.023630608824484,g
5.404487377922232,7.271590112113538,10.81109426411011,6.025999504630699,11.371397115025754,1.4162027707118963,-18.0440106697558,-3.5990621707956065,g
4.0388724943263785,5.945477564446375,9.511022140382853,5.4099953554851705,10.055189453268843,1.8604646464844108,-14.946026973570728,-3.9187251524470383,g
2.230096096303648,4.289612023972678,7.904188251653269,4.476586198301116,8.430767081600907,1.9006659024731,-12.417490874814941,-4.870735920755825,g
-2.2968335285189156,0.2576974424663967,4.175325908684327,1.9513273223407737,4.518817760338019,0.78743744532739,-9.275220886194898,-8.03886453561488,g
-4.478843108646126,-1.667142118083484,2.483066968415909,0.7142968831456671,2.703727869264527,-0.11440122218243472,-9.12387886265666,-9.912826519233088,g
-6.254092779924439,-3.2012292365199864,1.1644069200431262,-0.2592236830993322,1.323862995888429,-0.9787627287260703,-9.987804424290156,-11.704877005057163,g
-6.25409277992444,-3.2012292365199864,1.1644069200431262,-0.2592236830993322,1.323862995888429,-0.9787627287260705,-9.987804424290157,-11.704877005057163,g
-7.548196944457841,-4.237850395756542,0.24462699069696797,-0.906890973142605,0.4476730503308273,-1.6380409974015921,-11.54186379900902,-13.17374552420512,g
-8.475566038062713,-4.830664080730957,-0.40096209253163534,-1.280133964596181,-0.06250174297520994,-2.0170503629306387,-13.30799946176899,-14.109712445466673,g
-9.233588472051316,-5.1338960695686024,-0.9461770133408844,-1.4637628783995593,-0.4437505401754559,-2.1367720493264475,-14.915431817252278,-14.40689948843791,g
-9.946562527898482,-5.2969408752506695,-1.4902888267367416,-1.4926750865753173,-0.8673430843237394,-2.070588901330514,-16.240255463343654,-14.097453371752328,g
-10.571687125067857,-5.380603723496566,-2.0115034016438247,-1.343210452242476,-1.3470916753330124,-1.8822752285394853,-17.31797596140147,-13.316150760413882,g
-10.93401137936343,-5.340068028321346,-2.428560778280505,-0.9997325628063776,-1.7848957921101938,-1.5925252757390524,-18.18629548917804,-12.216250741493285,g
-10.861760478554656,-5.07197269609863,-2.7026252201299936,-0.522362225704614,-2.0906079023168074,-1.1903244534721753,-18.88019760064047,-10.900846138223883,g
-10.328972338593067,-4.493148935972565,-2.887776801122123,-0.048699896190989175,-2.266709533796475,-0.6586935769626074,-19.512987893534778,-9.427224691488234,g
-9.514412216018442,-3.6140439290825723,-3.100579217445751,0.2654263195633931,-2.408757149205213,0.012627902777750988,-20.170320659698753,-7.877923830932694,g
-8.733067924713431,-2.5680149563231276,-3.4426059187056643,0.3119166230215388,-2.6410774028880777,0.8140223465665961,-20.624174306291536,-6.421222551192875,g
-8.265848856958076,-1.5650223433212922,-3.9236959552339146,0.06569188311098381,-3.0254484089831504,1.6860439585497347,-20.266760390303844,-5.280595438407813,g
-8.187212810076662,-0.7838257412807144,-4.429140363392387,-0.41228394454883455,-3.491659705311359,2.5004225374254685,-18.519124798748994,-4.615986387542131,g
-8.319567680505386,-0.27792452275213864,-4.769587908008842,-1.0014794114457843,-3.8571107688448314,3.0929058252812536,-15.401362691382399,-4.413311888599001,g
-8.371304847869126,0.0264761025495166,-4.8106212130844686,-1.580246782471677,-3.9597989905282027,3.338544979000963,-11.705601595575036,-4.483878648742065,g
-8.17112172179276,0.2392443527247389,-4.599596604032034,-2.094408733856132,-3.8165905118407735,3.2134089556782692,-8.579614811408534,-4.582203011987202,g
-7.819249198120728,0.4024449686274519,-4.37732090895754,-2.584569379252809,-3.661160974245346,2.800995022253937,-6.84077395197622,-4.549054990874382,g
-7.632774350968093,0.4587102863062487,-4.443020331427444,-3.139977424143188,-3.808003646490365,2.245647473797603,-6.5191428267414055,-4.370400936552173,g
-7.925093724001798,0.30870877032055494,-4.965426593154761,-3.8091154812869505,-4.444077895700834,1.6797968072630838,-6.951444160324776,-4.121640077557417,g
-8.787746395480392,-0.09665873968791767,-5.879158849045779,-4.538357174009919,-5.507829028391313,1.1610748415069914,-7.371957096180472,-3.865067269268772,g
-10.034263447857683,-0.7047517357995783,-6.938921828593751,-5.189386029210803,-6.737980942721248,0.6614883639970464,-7.546112657355328,-3.5980754820173586,g
-11.337559491590298,-1.38946109842114,-7.889703479735983,-5.62522294257612,-7.849932264804162,0.1270569737003294,-7.898248613000218,-3.2870211441729524,g
-12.448052645991352,-2.0315775877690543,-8.629190188902069,-5.801713011090503,-8.712252677826166,-0.434153519094847,-9.02131394164859,-2.933301143059638,g
-13.324522615387977,-2.5775928696324732,-9.238586118503282,-5.792709737499465,-9.390466868538342,-0.9136403683442781,-11.049959257767036,-2.5953194062391303,g
-14.084321621413665,-3.025079282569599,-9.854084816421068,-5.725169024780592,-10.019360195607028,-1.1517428472478826,-13.459614895181852,-2.3499611889536127,g
-14.828851923606146,-3.3592393432727254,-10.488431882632709,-5.676636314459325,-10.614242979439243,-1.037839684343876,-15.367710466456547,-2.2447935153740994,g
-15.501540056736669,-3.5163722202771104,-10.96661878658618,-5.624749293487006,-11.000092257637018,-0.5915144695856384,-16.005380635215584,-2.29138046207099,g
-15.898919754667457,-3.4164517142026396,-11.038469611763965,-5.490921342293687,-10.930653287374437,0.0261840128260876,-15.084064052587758,-2.4921470744591305,g
-15.816596592013562,-3.028830699707634,-10.56447646642718,-5.22960710436365,-10.28482402094118,0.586623704713958,-12.96469616793234,-2.8531577806576047,g
-15.201287907315663,-2.4036825183758275,-9.611232854827941,-4.874531891055916,-9.162830864741673,0.9230373684168715,-10.527715382168672,-3.357180907360116,g
-14.189123991191376,-1.6438525578569991,-8.390128308067702,-4.502938768163872,-7.8146170207105055,1.0335721171018477,-8.69099413649209,-3.9246885699840712,g
-13.011209924254882,-0.8476909051970715,-7.110345458208914,-4.159798429197665,-6.478989513727591,1.0699450926767695,-7.8476169974304195,-4.413417922290144,g
-11.846247320393964,-0.06763577165726949,-5.866741955228115,-3.8150597859553814,-5.2586723617247895,1.208834370433237,-7.6998724598780175,-4.674505454373344,g
-10.729575928104259,0.6912017219198817,-4.633939891690191,-3.3908749878936333,-4.106696525520879,1.5118155495354073,-7.637474607659942,-4.627911166810245,g
-9.578909643318974,1.4349704931434524,-3.3530297999831205,-2.8352048685589084,-2.9197126830908964,1.8896307894492228,-7.28158931409462,-4.297932098100071,g
-8.305778127504329,2.1356902578322456,-2.030631214915981,-2.1805391117848156,-1.661213977370307,2.1858024226845894,-6.72981188846971,-3.7833488729887934,g
-6.9159791353099775,2.7192712874910634,-0.7614111112979911,-1.535278538270815,-0.4100333120669227,2.298013244049347,-6.4035766079965155,-3.191561569782095,g
-5.5194176191923425,3.1071089319600826,0.34443157419628234,-1.008708426329594,0.7074384440519881,2.248284214843526,-6.7074036605670715,-2.588628734315868,g
-4.2541982888473955,3.2778757611769387,1.2502275521969435,-0.6311281763113158,1.6269238780889665,2.165771740890269,-7.737251125254028,-1.99263536794248,g
-3.1990271840639113,3.289251162541615,2.003062579763376,-0.3402020334471652,2.382063066007729,2.200756943985465,-9.207814858020445,-1.3991333555956136,g
-2.3428337419905354,3.236462092788603,2.659898273865581,-0.04633104631131735,3.038441570617436,2.4291466342970134,-10.664748010889548,-0.811349292209273,g
-1.6236308272418083,3.1851978167413035,3.214881473813275,0.2795820940780036,3.607090731416654,2.8189396978113326,-11.817436781793905,-0.2575606898478907,g
-0.9974107950142624,3.135559030419698,3.6012442545494805,0.5674793911155421,4.0247709845948645,3.283703314623311,-12.663476539662966,0.20829929922108764,g
-0.1438304892332906,2.8627420633024263,3.690263967478914,0.548641524110758,4.136615639757531,4.281916552018275,-13.582311745588154,0.637397530716579,g
-0.04479564093163648,2.6057992551732516,3.4788777541497233,0.17159122387379733,3.869926691585011,4.864539116650058,-13.286966473464492,0.5512685872090277,g
-0.20786905733434588,2.306995145369409,3.2061378986361126,-0.2976440548632133,3.515003250231371,5.5229589179786345,-12.168366101286576,0.31019844664417284,g
-0.20786905733434585,2.3069951453694095,3.2061378986361135,-0.29764405486321327,3.51500325023137,5.5229589179786345,-12.168366101286576,0.31019844664417284,g
-0.6361056916694089,1.9723601920622347,2.867197287818517,-0.6874534604287168,3.11701955261471,6.201339276729758,-10.186415664511037,-0.013743245607939403,g
-1.3542989146099251,1.5321268346132997,2.3395059931924607,-0.9288883195222404,2.596325855489856,6.785748892809307,-7.468351685249718,-0.36101634099932667,g
-2.406953030692711,0.8740437674532329,1.4671043468362381,-1.1118407848995246,1.8057275786134022,7.132303536667303,-4.266648748996738,-0.7092294619647698,g
-3.7954435997361458,-0.05565432381546396,0.20526961637491253,-1.4133953818396203,0.6797624867794538,7.113544638870138,-0.9712719095656002,-1.0639732295976376,g
-5.414377285042187,-1.1710200913239102,-1.3040094598169418,-1.9519937812511987,-0.6629551408840813,6.671248615774601,1.9430817906365694,-1.4205399462829364,g
-7.060534006443232,-2.2641284134420685,-2.8018604220591152,-2.6832787546258476,-1.96944981105096,5.843609942306393,4.096366111368677,-1.7282996742291612,g
-8.522240978009895,-3.113606242303514,-4.068862838852413,-3.41783462023074,-3.011854851880006,4.743982413338394,5.360194092703897,-1.897165852823442,g
-9.683518129146428,-3.5993992809576008,-5.037530911667573,-3.9468543061099006,-3.7187263473319754,3.5072668156441758,5.834272656913734,-1.8567022730246745,g
-10.564304382578575,-3.74191147146705,-5.78459232180685,-4.183527262882128,-4.183695896542358,2.24055316589056,5.681754080695944,-1.6263392075064445,g
-11.268934067623713,-3.649664103123077,-6.429541059440302,-4.214897141931698,-4.564875720665346,1.0008353427536036,4.975113737415574,-1.328362532741962,g
-11.884192443651584,-3.427273223208148,-7.022350791963913,-4.220246941660969,-4.956744778253907,-0.19383337933275974,3.654298266282364,-1.1131308649517588,g
-12.405442585201795,-3.1176417855263057,-7.496336803626493,-4.314208702522058,-5.32213131977049,-1.3233472341965382,1.6426542691919177,-1.0459828181094555,g
-12.747479172702919,-2.7172905000549417,-7.716941824343,-4.440880801492932,-5.53166443972975,-2.3238621455344415,-0.9075595460430901,-1.0522447388387737,g
-12.828930321596085,-2.2379656083846493,-7.591563048308165,-4.4117863079890824,-5.480867228639457,-3.0959207976832244,-3.4527592305504577,-0.9779079476740353,g
-12.659080019537353,-1.7476461518481206,-7.15471844695511,-4.062364569786261,-5.1861559543895215,-3.5759362661609146,-5.258656861960095,-0.7284651414697754,g
-12.357989601910246,-1.3508089932294762,-6.560219443111146,-3.402035048413422,-4.777509849085319,-3.8083209428310525,-5.9116430832847575,-0.38016517517931286,g
-12.10085059064309,-1.1329840655625758,-5.993467188393187,-2.639692735541854,-4.4060528771008105,-3.938995995258428,-5.6624071870083075,-0.1716277657451169,g
-12.033610364237706,-1.1242335707917568,-5.578913105833519,-2.0654844189547146,-4.157859256819434,-4.128633236333417,-5.221474718760378,-0.36551800677632035,g
-12.2110603898986,-1.302114675481845,-5.340260096832595,-1.8734501118064255,-4.0330203055020855,-4.461728610141948,-5.20877519609453,-1.0628653867956983,g
-12.578068051995889,-1.6093155177185487,-5.215335632471329,-2.0464236857808036,-3.973485089615579,-4.9170748522335,-5.790990996039353,-2.0974842671031317,g
-12.992845689231265,-1.9608741939278602,-5.102011878970155,-2.378764912431774,-3.901595448906201,-5.400460884163968,-6.7585465652579915,-3.097903416346681,g
-13.28447931528971,-2.247293024695224,-4.914279120381155,-2.6146215297237636,-3.755594649854852,-5.801867872631675,-7.855768607169983,-3.69079529098127,g
-13.324821591670855,-2.353800958793607,-4.623642294623923,-2.5960967747955173,-3.514953530394474,-6.039930228133957,-9.056820093888252,-3.7103942618275427,g
-13.08067543312705,-2.2008479380144723,-4.262191115759455,-2.3176231060488917,-3.2008784730607998,-6.07048563297354,-10.58692743471715,-3.2684503989383034,g
-12.620178020250114,-1.7908253393208784,-3.8953759548076357,-1.8730077677457082,-2.857875045437711,-5.866081923351315,-12.634772537825615,-2.6459546331155948,g
-12.0767720177709,-1.234022637590209,-3.6017061351113733,-1.3710445473671207,-2.5473645237883797,-5.410107201285199,-14.954665555996613,-2.0993385613669444,g
-11.596407280859466,-0.7245851250815638,-3.475419772593777,-0.8955623409365779,-2.3610535447740393,-4.736727545921886,-16.7979790098468,-1.7200773217347805,g
-11.293663056748406,-0.45946972239716716,-3.6242658035575075,-0.5137894523118792,-2.4181448184829293,-3.974151257932198,-17.41423792783544,-1.4261006088366468,g
-11.232604261373776,-0.5428693495439691,-4.1371213716049375,-0.28822661451317677,-2.8224565993205557,-3.310216515597338,-16.734222647325907,-1.0645315295030193,g
-11.438826907571407,-0.9502104713388226,-5.044384205058634,-0.26957079012735374,-3.614457130437633,-2.8755277962526478,-15.52626148679425,-0.5441166696977718,g
-11.934546971686022,-1.5885351399123233,-6.3158884251077225,-0.4925740479379431,-4.77047979184224,-2.6503920174266797,-14.796612638045806,0.08348062376763883,g
-12.768579827474973,-2.4047317956776433,-7.903205999282029,-0.996845235441248,-6.24839063496667,-2.498257964070968,-14.958506464803671,0.6327434809638477,g
-14.006757358760087,-3.444100183090092,-9.783542663112955,-1.8522297404290846,-8.0275978563705,-2.302397447225207,-15.478195014830572,0.8724540183284313,g
-15.672249604920685,-4.801623165280153,-11.955779858549061,-3.141071472462637,-10.10018029663149,-2.0811307224392968,-15.249948938541953,0.6439220192516885,g
-17.667946755160273,-6.500964035613434,-14.377825051663205,-4.878942214550926,-12.415459518328465,-1.9840738676142002,-13.421628312450759,-0.05388962643578523,g
-19.741520196958128,-8.401091365949922,-16.88891204285437,-6.92323603506011,-14.819017169616293,-2.1780017475760536,-10.127971820525536,-1.0610599300621897,g
-21.54094845194738,-10.216807711077356,-19.195177146210607,-8.96179842757567,-17.04557686981793,-2.7123207465572876,-6.582559651097324,-2.143455900884132,g
-22.75266681102348,-11.655094121227867,-20.969715053019673,-10.634120933914577,-18.80564466243009,-3.4663552752501814,-4.318418140047914,-3.1260353749646494,g
-23.2454565131195,-12.570938780098025,-22.019593939326302,-11.724463050419406,-19.928402917244156,-4.225875164172165,-4.057584906031555,-3.99232612599175,g
-23.114143511149884,-13.014228467912426,-22.38144613156359,-12.27480250976696,-20.441332884093388,-4.835924265800129,-5.1646903632817,-4.876939581889687,g
-22.57228595411471,-13.119351544272808,-22.240935458257063,-12.504163605940134,-20.492083145201374,-5.3018626388196815,-6.2254267758585415,-5.941847162279424,g
-21.76196055552441,-12.928916435501932,-21.73039113323578,-12.584310529671527,-20.164762018173132,-5.748681111890611,-6.255286890260928,-7.2165898491693525,g
-19.01090961795784,-11.064693839285841,-19.20424455928854,-11.889808134604458,-17.872574453573954,-6.884395244738238,-5.114302246227086,-9.568006938680652,g
-16.79578466663378,-9.103799431342331,-16.847397206255074,-10.644380540464674,-15.578233316956977,-7.421993254595202,-6.400683221721525,-10.093195620040373,g
-14.16030616948539,-6.616301830557413,-13.84459260035813,-8.75642147444994,-12.629317278931227,-7.735201383016009,-9.699943623248075,-10.03082075051482,g
-14.16030616948539,-6.616301830557413,-13.84459260035813,-8.75642147444994,-12.629317278931227,-7.735201383016009,-9.699943623248076,-10.030820750514822,g
-11.550234249570497,-4.029595696221554,-10.615601781051978,-6.5632372378399255,-9.457080284342341,-7.72145475296372,-14.151615196793582,-9.480487729803281,g
-9.485024867643322,-1.8393698577340498,-7.704589293482172,-4.545826557729831,-6.605458912734532,-7.371356035933253,-18.11763405570756,-8.59090493424145,g
-8.289585048140877,-0.41141530755793054,-5.534902002728745,-3.0744430211471467,-4.491187251933638,-6.760536331777695,-20.119222599623136,-7.450944302091027,g
-7.952115898835855,0.12110958673502577,-4.252258031733732,-2.248023072730155,-3.250117088859901,-6.016684848212488,-19.649234319144544,-6.083473847434678,g
-8.20512902080521,-0.17013248428981145,-3.7499257484969077,-1.9271734825714297,-2.7647414575371996,-5.280136838997157,-17.32327222583258,-4.519463448164818,g
-8.751903093666934,-1.1064103997688484,-3.8232522046084902,-1.9024189374730072,-2.8243416935119585,-4.670383476865714,-14.366846912644618,-2.853864975850327,g
-9.453374848680447,-2.4819126196312213,-4.309812743176839,-2.045485387656608,-3.269990677558895,-4.256875582261429,-11.910623448333943,-1.219334267686461,g
-10.341147202207436,-4.091667273096229,-5.1190004750706155,-2.339509899074951,-4.021938241481772,-4.031128821184929,-10.539735036312283,0.2867917880388055,g
-11.47795763759061,-5.737706137403873,-6.176985880112443,-2.810094865848594,-5.017607993503792,-3.9011526694530523,-10.209118917574362,1.6319440443781552,g
-12.80318898740859,-7.247135023223892,-7.372089502408292,-3.4475825960497963,-6.152591916736342,-3.737395234707005,-10.431898610660445,2.791239926037403,g
-14.086434217172144,-8.48892625341129,-8.540583102685321,-4.172342946505797,-7.26675577102119,-3.4535941858105885,-10.620153508568269,3.662493679557408,g
-15.00566585958382,-9.354245324400566,-9.471469625424538,-4.829310107519918,-8.151315175749025,-3.0539028234351613,-10.411378314357115,4.0616048687920046,g
-15.274858470536165,-9.705084799333214,-9.910694513663026,-5.192677052917244,-8.555934026131787,-2.6001159687792668,-9.788219495742936,3.8405801753807296,g
-14.733670462829059,-9.349082747318738,-9.58441631484247,-4.998962470397861,-8.213681196255841,-2.1359242247127233,-8.953572797610665,3.039114286657123,g
-13.363253255306864,-8.093830413577555,-8.26714945895506,-4.0301929874197615,-6.905269023320552,-1.6467399561468965,-8.137502945356852,1.9190232648236225,g
-11.25128744841951,-5.866207340652582,-5.8808596652866765,-2.221024910845581,-4.549811109623782,-1.0856052044702231,-7.512601628729136,0.8231099585301596,g
-8.55198598345259,-2.8155905625843127,-2.570215694557524,0.2776300927537559,-1.2785335434196174,-0.4253842307129436,-7.193637033028033,-0.03195663075406827,g
-5.46657218090837,0.6833988447193823,1.3045980797426027,3.1321590662712504,2.5603108340787597,0.31494013070197946,-7.185480352362933,-0.6495649923986788,g
-2.2352566261918616,4.149332581879336,5.276834991145715,5.9534261461161915,6.496441641810423,1.082572108224418,-7.26247810092934,-1.1592423693268192,g
0.8807413708935778,7.172308394742267,8.937318999053776,8.453078601439632,10.103465041183547,1.8194896833775658,-6.93659382863081,-1.6302233299168356,g
3.632232707043424,9.548398834997366,12.056914386468588,10.535186060864776,13.137758712840341,2.4802382174048914,-5.671232472054858,-1.9581136170076932,g
5.8170663431750915,11.293946618964911,14.589472529115252,12.260214817396179,15.554007739411336,3.0280840283691015,-3.2986474918665865,-1.9119847687153932,g
7.304920694860203,12.54282722735933,16.566693942141022,13.706708573750214,17.397689205925253,3.4241185961925984,-0.3578148773204972,-1.291698425025413,g
8.048266565840622,13.402302614568262,17.976801962332132,14.837630007005894,18.67279475975351,3.6386688527774593,2.0054904762733408,-0.06725739844200244,g
8.07586394131511,13.857236862462301,18.714600460442476,15.473534639956032,19.282217702830295,3.690176141624341,2.6883561372254166,1.5963308870343966,g
7.46595090281527,13.770640731787996,18.621681510800315,15.38548715112761,19.06311937337869,3.6674987728337087,1.4539927173847131,3.4241657067983082,g
6.312093928072519,12.973500093059716,17.5808518352622,14.435189357592758,17.884606222023194,3.6859479236318426,-0.7509801837840089,5.142790165064513,g
4.710860569504298,11.397572342604576,15.616805299895708,12.675175270961885,15.762809033627212,3.796087643923214,-2.3568784758034975,6.541599379814126,g
2.7883341126923957,9.180960570139685,12.954542130670921,10.359310199006648,12.93608508600126,3.9311436093116257,-2.2268192420165773,7.479233830761052,g
0.7421345119936131,6.67393639286008,9.989989423433158,7.857734277905726,9.836442644461503,3.9505300659724996,-0.36992466383897327,7.8786959432252575,g
-1.1550112086906779,4.316192318402346,7.165527230237887,5.513258681858292,6.944427797346878,3.739651270976843,2.194283183832767,7.734773146076442,g
-2.625906388348329,2.4433072467279118,4.812556239665771,3.5175152242152,4.607023937231193,3.276436187501279,4.1841243746729075,7.112290676078781,g
-3.5052939463219084,1.147220874013919,3.059198724061498,1.887268296067451,2.936987076973545,2.6220980098491293,4.794040662878096,6.110832739981879,g
-3.816802201937667,0.29172531610051544,1.8588257356667222,0.5544465874933809,1.8517843049869598,1.8666714922617138,4.009375150032672,4.811408419809323,g
-3.7371878512789443,-0.3272771879528197,1.1094716904232929,-0.5070196864263,1.2120201322856,1.081209700449803,2.486787973250754,3.2477354249624604,g
-3.45969936153476,-0.7975116861923116,0.7753659565158189,-1.2220563281147252,0.9618261748720247,0.30183945339188145,1.1899352981406492,1.4270818779834096,g
-3.0559121971476806,-1.0196530526167762,0.9254391023948862,-1.4656624108098497,1.1779141838237657,-0.46120700288754435,0.9557871652377894,-0.6148069563387756,g
-2.4432840570510876,-0.796468376235226,1.6631475457628575,-1.1759477307312312,1.991075967945974,-1.2123991129379061,2.100372867662565,-2.7651243193480455,g
-1.4831127910750286,-0.001970493107615523,3.004321293818208,-0.4344379505167396,3.437215234082869,-1.9722185697986543,4.159445370308065,-4.826176845446834,g
-0.13240119736927403,1.3080109665285393,4.805521673784079,0.5544711711646675,5.361998147922591,-2.775139522301213,5.918230793794747,-6.554679440468486,g
1.462369616016727,2.9239610269129592,6.802470602135441,1.5739736878399846,7.462412678819452,-3.6333026397018977,5.896433086980456,-7.7260250065226,g
2.9902274185788156,4.603383315724573,8.714101411574308,2.5051187908297368,9.418210476145017,-4.476061288974057,3.2150057208345317,-8.194172300759965,g
4.502513851722064,7.4521079057774156,11.394140630136834,4.0606771581765555,11.982795580309919,-5.433261220693075,-7.015544823390513,-7.0531846411940595,g
4.1143838678834435,8.305973943769564,11.769199804886421,4.5613308847625955,12.24600679833139,-5.317046071506863,-10.842339572305551,-5.7849693329794425,g
2.9974548249994735,8.51410673697546,11.263356002451726,4.616947835095689,11.630992451709698,-4.926465218033372,-12.19240679900264,-4.3987161519128835,g
2.997454824999472,8.51410673697546,11.263356002451726,4.616947835095688,11.630992451709702,-4.926465218033373,-12.192406799002637,-4.3987161519128835,g
1.3261038190901897,7.927697780646371,9.83011380234903,4.037559307782292,10.100599329029171,-4.515048510780524,-11.680853873528909,-3.0941974570772675,g
-0.7123893821585814,6.57463464607916,7.624849031601326,2.8158290632889678,7.798327560460152,-4.291016687977834,-10.85322292337645,-1.9298998866224466,g
-2.989147089879962,4.673648955461858,4.968312351810335,1.1537986807329665,5.025100849014417,-4.303727315339489,-10.91867822551232,-0.8635734011598817,g
-5.439141521049073,2.5140140723998625,2.2049251783552273,-0.6603523502778132,2.116547028308439,-4.45580592396186,-11.870758393883182,0.11823029506095359,g
-7.99635183180438,0.3007956270711283,-0.4376120265315116,-2.4175849153447366,-0.6894327226701205,-4.619558140849928,-12.630954169133364,0.8953209184504509,g
-10.507688173290683,-1.8978680348992185,-2.8771919860539423,-4.056446961930875,-3.288712911561761,-4.761895160898016,-12.028159762812349,1.2390383269057332,g
-12.702618566613305,-4.060684420376011,-5.083727998083856,-5.58969137511593,-5.627637106909889,-4.977079391658014,-9.814746260599664,0.9625018244913217,g
-14.268113172169226,-6.078014580422203,-6.968072968949961,-6.9748254592356265,-7.5963948148693365,-5.398925161269336,-6.930571137650932,0.07835963809071575,g
-15.00239760835926,-7.718434458832661,-8.378348720230568,-8.06331809157285,-9.029371551000873,-6.069795856526821,-4.834112959078529,-1.1689213127158762,g
-14.946226899371307,-8.750819597682568,-9.221620278230322,-8.683810583063966,-9.835785643289238,-6.886969678723547,-4.468221071078026,-2.4329066353063515,g
-14.386527868113058,-9.123187781187305,-9.594643811777994,-8.78073347116067,-10.135965434623815,-7.672720600381754,-5.697578163114119,-3.4621652279942565,g
-13.717992059398323,-9.03572853599486,-9.786599518131311,-8.47292269293619,-10.254916790805174,-8.29556441749202,-7.601319366448597,-4.211583052382687,g
-13.262503897671667,-8.8361898523587,-10.134792835706127,-7.97453542985186,-10.557915982386424,-8.733574870514701,-9.264658878185271,-4.787291096846375,g
-13.172682218084173,-8.822058882477762,-10.847992129610958,-7.452358655686787,-11.258606682509567,-9.041700313350262,-10.382665377645086,-5.288020037540919,g
-13.457453095351568,-9.10533610224538,-11.930528877443727,-6.947453606329169,-12.343286685639672,-9.270713229543762,-11.276247101061193,-5.689122205129638,g
-14.061032583997953,-9.626624978636018,-13.243569853381922,-6.42016902055685,-13.646264764122032,-9.40849858587433,-12.426537161610657,-5.863066865357869,g
-14.909703247991606,-10.27663485108802,-14.632825665107045,-5.862577901803226,-14.997624363167736,-9.386251882023934,-13.928430107120864,-5.701115587103248,g
-15.910836927964283,-11.011924958896104,-16.020489730201383,-5.3693030992061335,-16.330167830119624,-9.148904469872829,-15.26495070129231,-5.22130486571011,g
-16.952754578548422,-11.881257920326634,-17.408355287599075,-5.104701012146033,-17.680157713222876,-8.7415666263872,-15.586051649798403,-4.578664251521156,g
-17.943709485754333,-12.963550384256203,-18.81677711245664,-5.199441714153525,-19.10359681308332,-8.336696330234185,-14.309635073386215,-3.9856227363772754,g
-18.864521221986912,-14.2809693448197,-20.226206515755408,-5.666034167673123,-20.59071479856157,-8.163799711552851,-11.576743303778894,-3.6153826964490334,g
-19.768599871353445,-15.749168160970836,-21.56341330492155,-6.396176041324109,-22.04383910257824,-8.38925096566923,-8.197179273873816,-3.5558755340683477,g
-20.699353697843016,-17.183256406239174,-22.719810871315094,-7.227688349568867,-23.312264150978294,-9.039070403568642,-5.166754739115706,-3.8280894296611416,g
-21.58416679473171,-18.34645978017483,-23.5735093106469,-8.021033121229781,-24.23976642444186,-10.012415860852714,-3.161070464035689,-4.4310463168807175,g
-22.21497962682619,-19.02673496454502,-24.01810661591945,-8.700294480986827,-24.708543916350266,-11.157130207901625,-2.3220969419334323,-5.364775821538853,g
-22.36588540736119,-19.12228048410328,-24.01145036366236,-9.25376931274695,-24.686599408177944,-12.348776131431718,-2.371823115738189,-6.6122090254003325,g
-21.966078741391865,-18.691190147209106,-23.612773316095076,-9.704897942529298,-24.251898139728162,-13.529609752291893,-2.9258772390511356,-8.098643036124969,g
-21.17324468892071,-17.91460251619003,-22.948162208185458,-10.060334220656015,-23.542203468984916,-14.686656560219902,-3.832130548801048,-9.66341702300193,g
-20.267728356727794,-16.979498309693163,-22.10552727618942,-10.256016309384716,-22.64203963012635,-15.78094249767052,-5.319569728403315,-11.070521197475871,g
-19.451145571799163,-15.968446935993814,-21.055680022769007,-10.149382307932372,-21.509418910351606,-16.68674402766204,-7.80742787516107,-12.066450438622695,g
-18.726031706143335,-14.85630235112607,-19.698122419943452,-9.594552073288558,-20.035176635925843,-17.209516779239515,-11.4719142011152,-12.469690321754056,g
-17.960919684505296,-13.624329018479823,-18.012804480773305,-8.567507547413594,-18.20346406426221,-17.18538185093999,-15.897762977095681,-12.247194652707096,g
-17.073758749864847,-12.387504573886176,-16.181527643898225,-7.240233058838444,-16.212243787654593,-16.58301921501611,-20.112185180065925,-11.519189270864517,g
-16.158250665779633,-11.40453377338643,-14.550370665027037,-5.919421032482951,-14.4310090987041,-15.524091115742527,-23.035390278266412,-10.468911562960642,g
-15.434825907881486,-10.93784969966859,-13.436861525017765,-4.8737993522224246,-13.20305463509641,-14.212016312165705,-24.080652549712195,-9.214356324901512,g
-15.074440386989968,-11.069468876785155,-12.92645640376898,-4.181609979667948,-12.633177366514976,-12.82801678726097,-23.471414508984598,-7.752307110787808,g
-15.058703833594773,-11.628942083660132,-12.8272684963062,-3.7279423034253454,-12.53095625580023,-11.4650352265524,-21.971604696766242,-6.036612736485242,g
-15.196608190524946,-12.298969178071673,-12.827725967618719,-3.356871072534792,-12.566252725529123,-10.138426815068584,-20.191645445120223,-4.128604993340467,g
-15.266505518984474,-12.81192323376222,-12.726136873827947,-3.0419058708281623,-12.513032357181142,-8.860504865828663,-18.097673783517635,-2.2771719513211,g
-15.144316554812296,-13.076285800765959,-12.534358942185227,-2.914854012642029,-12.37197848102305,-7.711141579408919,-15.25270834957016,-0.8352688800262115,g
-14.813326648684551,-13.142205048772727,-12.374459613417141,-3.1208835606764715,-12.272174840817776,-6.824979092477056,-11.586756980623466,-0.057972186155000924,g
-14.278554686855054,-13.06077786576384,-12.281885475877868,-3.6334926256631257,-12.261840756178508,-6.2875186075812675,-7.8659238723988505,0.06642101077458933,g
-12.388628985421471,-12.150602495325987,-11.615440907997995,-4.525967105748413,-11.812639908102373,-5.869868152248143,-4.380818484169062,-0.4569429169082417,g
-10.934004742385193,-11.071774589463965,-10.64965246091992,-4.410155750223462,-10.93018463338193,-5.59926313987038,-4.57262581738398,-0.5434052507936464,g
-9.207748092647334,-9.559241078743726,-9.261107268071614,-3.9190039526272167,-9.565463059481838,-5.18580689350471,-4.38911962871408,-0.4949641006050731,g
-9.207748092647336,-9.559241078743726,-9.261107268071614,-3.9190039526272167,-9.56546305948184,-5.18580689350471,-4.38911962871408,-0.4949641006050731,g
-7.350407587617897,-7.750430741583041,-7.653589444992884,-3.2511412030958944,-7.914342822158479,-4.783022837518517,-2.7346275566412674,-0.5118629345118985,g
-5.4810509158269385,-5.801963136742272,-6.037160020488408,-2.5538110002759793,-6.211519855261808,-4.623162209597352,0.14215002952496789,-0.7327758483208822,g
-3.6474830960601055,-3.7958631525298268,-4.505086861458873,-1.8099279188720587,-4.590782365249449,-4.840001423853923,2.7438433336463914,-1.0971711635071766,g
-1.8541378441145568,-1.7333688527671836,-3.0230316689005177,-0.8947129520414047,-3.043233784973089,-5.360162929696287,3.489075530418483,-1.3835807999817373,g
-0.12443845608033569,0.389251136556903,-1.5130194655277787,0.26465252554018626,-1.4845452816362272,-5.9475911929213146,1.9570549467683769,-1.3695124096021243,g
1.478987716027713,2.5038932173390407,0.059226977745301036,1.580536130758233,0.1457659957029799,-6.36505239831145,-0.8773780711542214,-0.9739855877434188,g
2.9000386181732276,4.468459595866237,1.6655669172191854,2.8438846765594255,1.8391532335689444,-6.5176201879415006,-3.5493104165927023,-0.28550846855048406,g
4.145984471406655,6.139716928401255,3.2545879788054726,3.8657304334781806,3.5393248066637755,-6.463343853840122,-5.22491128904101,0.5187185425939649,g
5.284840942719593,7.453441587696477,4.786263357023288,4.590219245517976,5.177486788503014,-6.303565230925056,-6.060449930316953,1.2868855037762414,g
6.376812259091166,8.444971172086689,6.228132319939331,5.093201243999043,6.684772040191436,-6.069062926135983,-6.709524804514999,1.964649629375316,g
7.403328047812534,9.19919048114518,7.533573544111225,5.492469804172345,7.995040131557323,-5.697738856909605,-7.633932944795113,2.593308393498655,g
8.256258963016666,9.770682070491706,8.630369053015018,5.855396309937818,9.052448363904656,-5.100523256569445,-8.777623059884604,3.2478940240717846,g
8.788257924862073,10.128918225568748,9.419195424260666,6.160997104004037,9.805910799041005,-4.248652789052171,-9.63735704989995,3.958164197222158,g
8.877296143516967,10.166490292012488,9.776373546788232,6.318399851790512,10.181762620855336,-3.224219869600146,-9.522419858012778,4.663690516613933,g
8.465695184301303,9.770685906242415,9.574997565095265,6.217451194574098,10.070286463650165,-2.210427747337936,-7.8912010176929615,5.234514075633173,g
7.568044378839064,8.910919378119079,8.73277586240018,5.783259924199548,9.36161738133413,-1.4268712040724811,-4.689269008016605,5.543782696347195,g
6.261866837569631,7.673278981043947,7.2599541943534875,5.00771095281393,8.011308739469396,-1.0443107071455202,-0.5161335167298567,5.539299663828888,g
4.673640893540662,6.214473090568589,5.27168670636942,3.946465328512539,6.0852817987944245,-1.1286274432970074,3.5230492524069406,5.263695886893081,g
2.964078568711117,4.681719950541153,2.963411271133076,2.6966655996953066,3.7632167752460433,-1.6369372955485406,6.232877146818246,4.816281120577045,g
1.3089036586611074,3.1732017681116016,0.575031402263717,1.3773648085187562,1.3111973883502892,-2.4446342121843494,6.832254987250337,4.292606619043143,g
-0.12665691732315504,1.7648845963110589,-1.6400585583656102,0.1152938702241463,-0.9680634481824978,-3.377400858215919,5.340603397149685,3.74630973677363,g
-1.2068544786034858,0.5626799231080115,-3.440050592798387,-0.9709745047048817,-2.7973509686398215,-4.2513981461561965,2.601078357009583,3.193275161130587,g
-1.8200297013644948,-0.2776774530984305,-4.611130491528598,-1.7814904096505537,-3.967941322481417,-4.925721369697285,-0.2006737893681243,2.642639620339568,g
-1.858593398421926,-0.5866860032283574,-4.978939177039949,-2.2315257719398325,-4.342169170999382,-5.338292035156992,-2.2515714094986823,2.1169730671658997,g
-1.2272339423638476,-0.25335524284614236,-4.437339025913585,-2.2511598711285568,-3.84580421046457,-5.496620969073642,-3.4564681087602587,1.6350666538315508,g
0.09486461585449354,0.7120637281551846,-3.004298505867653,-1.8121896005256104,-2.4951711917890647,-5.444720820070612,-4.124434631036679,1.1720802249150668,g
1.976769250193853,2.167577841591802,-0.8669702254066136,-0.9694907155675996,-0.4456970943260684,-5.251457866891681,-4.4196436801297505,0.6437867667378179,g
4.1195470229025375,3.885810806250796,1.6370001667830885,0.12844538524501709,1.9992034210869902,-5.022650453190538,-4.206292700683234,-0.05553839230543502,g
6.134883977128495,5.615125213451822,4.102295618923837,1.2796659515860422,4.444860551691373,-4.896619522317847,-3.3594998686213295,-0.9850781462557686,g
7.672997626187216,7.110754579228308,6.149628061884106,2.2873353869197097,6.49262240641833,-5.0050211353871,-2.0769780095653165,-2.1143653626178036,g
8.518808771767487,8.141848404105398,7.491364143680994,2.9957761148257736,7.821305434255359,-5.426058996661131,-0.8512071252915347,-3.336605910752018,g
8.610648297020266,8.519778520701816,7.976428538237227,3.3018531001805655,8.258938797284497,-6.15823355327583,-0.20578870161253135,-4.519215647840157,g
7.99907335333469,8.164044531722531,7.6240308164057975,3.165761209518391,7.8331910155065545,-7.116799799414953,-0.4515850098805771,-5.5472862451631695,g
6.798647059537828,7.158815112548422,6.622248485500963,2.629485300679709,6.7607334584833065,-8.15235063752919,-1.5893216178814078,-6.333882095373907,g
5.17075386552335,5.73762344600957,5.267769001033783,1.8263276913350552,5.361035524064498,-9.096116430702107,-3.3907048342937984,-6.805446630260162,g
3.3293101274279886,4.186972102457821,3.8671535501218925,0.9614128260457004,3.942887571007097,-9.812382773575818,-5.615075394567775,-6.889456127708729,g
1.5270870740390332,2.72396184360847,2.6483009211755197,0.2538628055292104,2.725719322894263,-10.216976081796856,-8.162410292464152,-6.527431987734934,g
-0.00586181810527453,1.4212032322770254,1.7150250391879525,-0.15090665474060927,1.8111828022622363,-10.25422585337381,-10.95601149019823,-5.7176734335267785,g
-1.148692584977077,0.21788475476190267,1.0500071432870004,-0.26044428627928834,1.1871850343673667,-9.879162972914997,-13.654397513757038,-4.567211787413659,g
-1.942764228032734,-1.0035442887890047,0.5541390460825918,-0.2480336688082458,0.7536569159237068,-9.086916115430714,-15.551967355003919,-3.313795807658175,g
-2.5720101303698666,-2.340922169291356,0.0933628489241973,-0.3735984041340369,0.36038788524698234,-7.9699956097266735,-15.845257742411334,-2.284903481880119,g
-3.2834894988202983,-3.8539504866404264,-0.4815521906519293,-0.8604302265556111,-0.16722657450381603,-6.747662250705656,-14.054428515543345,-1.798161514744077,g
-5.715089566627564,-7.641822670885349,-2.6702396330967,-3.2090929134160833,-2.3819552624202296,-5.246994777183092,-5.374431605981415,-3.0675957739227355,g
-7.535291108074057,-10.032737567246471,-4.587245780411822,-4.966418573117402,-4.351855918202271,-5.491258447200822,-0.4860724635824347,-4.716280942888799,g
-9.632147046547487,-12.722695353682287,-7.071848913480153,-6.992063015432265,-6.8772841328640855,-6.466149554284945,3.163533361468155,-6.804041794932078,g
-9.632147046547486,-12.722695353682289,-7.071848913480153,-6.992063015432263,-6.877284132864082,-6.4661495542849465,3.163533361468155,-6.804041794932077,g
-11.834915548877497,-15.547576879829816,-9.937704031643685,-9.222926782297952,-9.752279932363846,-7.978629324992667,4.996929813298064,-9.15663150328336,g
-13.983886289499534,-18.278526717588726,-12.899160946449674,-11.61377366209084,-12.697248081817671,-9.772798081135386,5.322489610046992,-11.645087166345522,g
-15.954481403521992,-20.702308459547158,-15.666943454459645,-14.0862748090667,-15.445050002538036,-11.68562785923272,4.967380705527705,-14.146002744744262,g
-17.636402364362997,-22.66519260426444,-18.007543611618644,-16.480415111810757,-17.77666548779,-13.696972640657517,4.519886246137114,-16.488741371462446,g
-18.89648448692379,-24.063091128627782,-19.75070782050938,-18.562405951460537,-19.51519958591301,-15.834227731722965,3.803053092683568,-18.455076761208726,g
-19.565901557905985,-24.812816042361415,-20.770577163325516,-20.09612369945562,-20.514889028429682,-18.026154131011275,2.0036521397098106,-19.845618834750173,g
-19.477502326163332,-24.850768250900593,-20.97630456973361,-20.92866807138929,-20.66974272135645,-20.04241728373662,-1.6294467750281896,-20.560452540812257,g
-18.55111668457819,-24.176928964389198,-20.341967645557563,-21.04113823272087,-19.956102326931585,-21.580100737008188,-6.997036815774086,-20.626463167380304,g
-16.88551403974583,-22.912511987996528,-18.970509578318325,-20.552834380581515,-18.497863970497384,-22.44218067239644,-12.869888721743104,-20.15219751021023,g
-14.781065724722614,-21.30254930955233,-17.125161550126315,-19.678840564616227,-16.587368984016052,-22.67589800859856,-17.47652090803627,-19.250472017295614,g
-12.637103878656985,-19.61919881002435,-15.15025078653449,-18.637545277105264,-14.58685316901609,-22.550470310054315,-19.680498675302836,-17.986352010626504,g
-10.763370060684696,-18.01319928648757,-13.297420260585653,-17.539290440701947,-12.7397880400003,-22.366935816768244,-19.845659411782993,-16.378358377826455,g
-9.238968406082453,-16.434542622685665,-11.588444955782581,-16.335059345193987,-11.040738395502135,-22.239311571316243,-19.5932361716384,-14.436573627510608,g
-7.9342384693006425,-14.70360639814271,-9.839305896135118,-14.880955140825273,-9.286625552112907,-22.027225361138726,-20.58018898097354,-12.199309195286332,g
-6.67861802037297,-12.684214713534548,-7.835159133789205,-13.079679655598303,-7.271973123450154,-21.47292189419189,-23.29315188132205,-9.744603227730437,g
-5.436722811725318,-10.420787409045891,-5.523197364755469,-10.995465660238649,-4.9722025448317,-20.41651653103745,-26.79288049025262,-7.184483155030537,g
-4.357959728680889,-8.138451674076693,-3.088053001805453,-8.865881668355902,-2.589473369146318,-18.909735072234135,-29.503631879674618,-4.6614665401470265,g
-3.6752657779402798,-6.1202441873338405,-0.8664550742087975,-7.007420681385294,-0.44869930145291415,-17.156194231559702,-30.35503293141004,-2.346247382967811,g
-3.5420935985681474,-4.5618051954130525,0.8370118402177498,-5.66863094145693,1.1774158224577913,-15.35293115254338,-29.421142958219793,-0.414343830128504,g
-3.9325836230364954,-3.5042522574275723,1.907711729632333,-4.912397781819819,2.1995104214193777,-13.569407707682796,-27.64543073282359,1.0072796999595244,g
-4.675092645259422,-2.876883344919784,2.441667717470458,-4.6031537441566455,2.7110420412584415,-11.753995918883623,-25.945296957884512,1.8945212380717522,g
-5.583961305409369,-2.5970400822867545,2.6215402168390547,-4.513912334557964,2.8657022037572686,-9.85229799299343,-24.46831251067141,2.33468042537197,g
-6.573683649060567,-2.635534803907818,2.561162818818943,-4.476158611308194,2.7483174191626487,-7.928554048234723,-22.603156455827,2.4720645762236453,g
-7.655682143162127,-2.9954748697647253,2.2535474851611115,-4.4580883939237115,2.3556587713471044,-6.176030668323668,-19.63315213815047,2.4266934367872346,g
-8.82759934535284,-3.636108395609246,1.6528857548333789,-4.5196121565536185,1.6862359062077161,-4.803715306635537,-15.371819300987303,2.2498007640760753,g
-9.968004540922403,-4.420146653435804,0.8008600218698202,-4.694476255127687,0.8351058506720002,-3.9035641430904016,-10.288752867197536,1.9535481398038343,g
-10.842782065371555,-5.131605658444845,-0.11398285558694088,-4.89776346886995,0.008102397110141091,-3.4122292838950528,-5.206506634491592,1.5883652613431285,g
-11.222678244074837,-5.5464566592529065,-0.8052546137810292,-4.928773102510322,-0.542524043235949,-3.180622636404425,-0.9181256604492475,1.2907173858570746,g
-11.013438548872315,-5.507551512438322,-1.0097813998329606,-4.574131373708011,-0.6108738368083779,-3.0747356487487116,2.0904584435884783,1.2371683989706672,g
-10.296472505838464,-4.967203040071439,-0.6054425733536541,-3.7503943708943526,-0.11247633210374335,-3.0349133814023177,3.784788665773155,1.5212133315243537,g
-9.25587741675423,-3.981301866463243,0.3484926407170031,-2.5863845726056014,0.8954547108034705,-3.0747109797607783,4.517370680187609,2.0548380579868346,g
-8.054378814948738,-2.657533289184535,1.6768322385006234,-1.3703282775584358,2.2668875438223988,-3.2330967444127396,4.717796206601397,2.5995242668156022,g
-6.755637368498273,-1.0898978081245896,3.206475161755871,-0.3842184499427437,3.8558310020776565,-3.5074059379173206,4.549083205926516,2.927136753915078,g
-5.352375139542801,0.6660071879808287,4.833926216253952,0.25336498948902486,5.560378617946221,-3.8131998795000244,3.845431019720923,2.9869121337450153,g
-3.8728433715478223,2.5490384155545507,6.487280698714893,0.6149569001587112,7.282455980221542,-4.011332946255187,2.375858862572758,2.9367551939813983,g
-2.4699261526866776,4.418869294698049,8.035004143285239,0.8506898452810768,8.857239180887445,-3.9864078539737697,0.16226592810619125,3.0121866838788014,g
-1.412010239537778,6.02982553283694,9.245519866676462,1.0359389282287197,10.039531879674803,-3.7103676518674313,-2.405358062425955,3.3441254558880025,g
-0.9806955010416913,7.093968869069838,9.847751068557644,1.0999441602448885,10.573911732043715,-3.2469099328605466,-4.6954122892655095,3.869270603553833,g
-1.3526494364541208,7.400693831616979,9.650577586456247,0.8790644279346667,10.30084505805154,-2.713835321774522,-6.11735462714968,4.389326465165401,g
-2.540362926365329,6.91307362069532,8.634916670328467,0.24502424770398018,9.22960583436966,-2.239097940352269,-6.42749173015292,4.718756636217747,g
-4.412794643409747,5.774052179384812,6.954791041788826,-0.7882985860467511,7.53097677992691,-1.9199451931540836,-5.852628037508505,4.807723570040713,g
-6.768456745462991,4.217297801248665,4.84665137605933,-2.055297342741599,5.446870417051579,-1.7865790089484506,-4.892244627090912,4.761057565724913,g
-12.188972710688677,0.591395036244425,0.07944032435819696,-4.4267709109661,0.8200717751831285,-1.833864664238201,-3.1768853677839113,4.928303742320383,g
-14.961860695047912,-1.273177668285014,-2.366500886403866,-5.276961326904787,-1.5474675420915562,-1.8159896163546416,-2.4901519539559493,5.300836430293563,g
-17.56315921526579,-3.013888558574205,-4.674703434731771,-5.877121987111252,-3.7946134842355845,-1.677265449058676,-1.756749957688033,5.786644642640878,g
-17.56315921526579,-3.013888558574205,-4.674703434731771,-5.877121987111253,-3.7946134842355845,-1.6772654490586756,-1.756749957688033,5.786644642640877,g
-19.776317060466475,-4.409215332519071,-6.607019523125433,-6.244005304363533,-5.693034336099622,-1.426694389264339,-0.7734202717274486,6.245368742888431,g
-21.37010419221372,-5.196053484337784,-7.895807364370673,-6.379556009644459,-6.98477443042397,-1.1511767223258886,0.646264005304453,6.559321159326116,g
-22.161737523558806,-5.173673943901897,-8.348758092957018,-6.273968303004107,-7.489477838152834,-0.9751735950141984,2.395954219035643,6.698101981051169,g
-22.06883623210639,-4.292197374627069,-7.932109957183106,-5.92607451444275,-7.183226995962338,-0.964556012363953,3.8954774945285826,6.740866251461112,g
-21.127390089635416,-2.677675015678003,-6.792558335816241,-5.365372178034461,-6.215273189570557,-1.0432985825743917,4.391098644509173,6.82849856006294,g
-19.47243225214111,-0.5870213192015175,-5.206030591940642,-4.6657879489768845,-4.853848390012681,-1.0166449984536414,3.6159061191676742,7.053853252505206,g
-17.289535357100412,1.6831605841041128,-3.4670337131023152,-3.9379039072417923,-3.372814502691736,-0.7071585585766895,2.1846073344848764,7.360287898038768,g
-14.758736951893743,3.893009256403036,-1.7691380786375823,-3.293111221560263,-1.9325957902489974,-0.09644967595350966,1.2544048865140558,7.544130089237081,g
-12.022856599526905,5.916948871010969,-0.14872556550327146,-2.7968625735035237,-0.5340200777156558,0.6479944137425994,1.6597809218217479,7.389902682250293,g
-9.199591824507518,7.734079291597491,1.4675960165495792,-2.44393601661934,0.9179353475434026,1.2852968829749964,3.2327671941086935,6.846489057265833,g
-6.421956810183881,9.359358894940556,3.142617885754963,-2.1741963348055995,2.4851457809830704,1.6691845946463748,4.900745357022897,6.097534243147995,g
-3.865496262402746,10.763832251938213,4.819458365640655,-1.9147592363932535,4.093585685282696,1.8492012236956086,5.52730772876878,5.460720423297057,g
-1.731560043048456,11.844994389763858,6.303692434442054,-1.6154763693393612,5.528712574251701,2.0286176981985657,4.821652677506185,5.195660630381953,g
-0.19648562873464287,12.472481251473388,7.355989290634964,-1.2557620783731451,6.53759826081112,2.405305947591543,3.531607584947385,5.36878762750383,g
0.6302886664391364,12.569570972627632,7.830809710474357,-0.83044406367575,6.971290316465158,3.0180194298537253,2.742433365270384,5.86160333152723,g
0.70208270921747,12.154655335082694,7.7478926928072,-0.3437974566384276,6.854950582242036,3.722641830736515,2.939521790933183,6.489137368384904,g
-0.00957500500562749,11.301584583987593,7.2271324060858575,0.16828137941378046,6.314223692188358,4.309080771273165,3.7111989767230638,7.123077585349573,g
-1.5512880618005847,10.058658303976479,6.341125723392311,0.6059331715982174,5.415198828105277,4.645457026546963,4.296601895257164,7.73150489990333,g
-3.9667020088811284,8.412456136791393,5.030207635960291,0.8109702379838055,4.075923780956634,4.730801856560409,4.34946939064938,8.326064709287873,g
-7.21905728731017,6.340842208943192,3.174419940573249,0.6384714305829741,2.152630124217768,4.6423576802193,4.184325463339639,8.88351872733111,g
-11.116876572975965,3.9085774422773363,0.7640317135803116,0.05841956378046169,-0.3681903037057895,4.452296915362966,4.387137206321946,9.322613578228937,g
-15.311066019736638,1.3142774354879456,-1.9861169761962116,-0.7921069044518831,-3.246835836178627,4.185486686805711,5.238988541461721,9.55888718012799,g
-19.379311334581605,-1.1563102648096486,-4.678460387989179,-1.6572802883979425,-6.04470875360683,3.8372303655671836,6.43031819482179,9.584874094732701,g
-22.948544225165804,-3.2317131191898243,-6.896120494093859,-2.2856230283625787,-8.311599980811952,3.428550234494993,7.2339723310922155,9.502508356210383,g
-25.783940935299547,-4.73364244971004,-8.369786253749153,-2.545500930161522,-9.772124362610688,3.053713178023245,6.996631444569724,9.481711961826175,g
-27.803149424674974,-5.588348492811706,-9.04552189862526,-2.4555328419336098,-10.396555865414916,2.8719640498002015,5.60622355406299,9.680161053472304,g
-29.026976487696167,-5.786473832087379,-9.028057239668696,-2.111728355062069,-10.32597245697861,3.0348574150371506,3.591528395899774,10.177753777703083,g
-29.517523208495824,-5.345167210054034,-8.460161905537216,-1.5719087569244368,-9.722096364062947,3.6017310528022755,1.7996742652979254,10.95409321319378,g
-29.356788823279174,-4.314166542892241,-7.441695530325103,-0.8004780780301737,-8.669383739171668,4.508798287583216,0.9356594986272256,11.907782971090766,g
-28.67599912029424,-2.815115505692251,-6.047933361392163,0.2684716279886499,-7.206350883486219,5.604197176845658,1.2558649172333671,12.905721885506278,g
-27.688903951998515,-1.0575594984076353,-4.402647185114105,1.6036155615358971,-5.430718227938192,6.712325978571076,2.4711833523737923,13.844316281547114,g
-26.66917590878714,0.7114445634789173,-2.704753528781293,3.0100079544121288,-3.547566087770248,7.69556321666815,3.851192647176249,14.68935387959046,g
-25.865981690284478,2.2993153493109135,-1.165266765114397,4.197597243996915,-1.8009349975097089,8.499715560161977,4.609347268347576,15.459860886437198,g
-25.41980226263987,3.6267700237691116,0.0857764100991453,4.932116533491899,-0.3585705042818389,9.160764343264647,4.471414231709234,16.160118994622096,g
-25.346842077609807,4.704207190780341,1.033813624477453,5.145137902007057,0.7427480834138767,9.753543710449591,3.9598383995699087,16.71842162413597,g
-25.59729465982762,5.549402675604492,1.7302909880862696,4.925654558662922,1.5558817441839035,10.313561682394113,4.007276230550147,16.99884675294142,g
-26.12893199747961,6.116411301024757,2.207235283975645,4.417471135314747,2.131882324732273,10.802937164435395,5.168922723619447,16.890854864596246,g
-26.934451897505447,6.290394376697437,2.4235191036399,3.711738890316771,2.448550446647782,11.151281872963837,7.160382873047408,16.404338777913637,g
-28.01147106792387,5.9502064374244785,2.27959659279425,2.812496830901973,2.4071352945448847,11.324408451823045,9.122973338383881,15.679838063949546,g
-29.31625853088899,5.049795477119772,1.6841006477413067,1.6856660098065297,1.8963970303073796,11.35436082669796,10.33324295619397,14.88776422788309,g
-27.39762762434956,3.652558577578111,0.6123192103728747,0.33297621171430897,0.8668498495766886,11.31234266748649,10.763577182976075,14.08925158367561,g
-25.289748067289324,1.8876274465692084,-0.8957848294079985,-1.180292821577512,-0.6525014798789819,11.250903384532581,11.095869712678425,13.181569592319534,g
-20.41455127417414,-2.370098607528331,-5.014994924474773,-4.323118002524827,-4.898372254137276,10.915660621320844,14.360770043709703,10.474578007368361,g
-17.785714164753138,-4.802346429467563,-7.51943540554516,-5.815188645950548,-7.45605637846649,10.412590326029392,17.137323064072824,8.787973171327698,g
-15.14930113322676,-7.355321960717089,-10.141388667727982,-7.172588150286572,-10.082550704248645,9.567739993923073,19.619329868712747,7.24775319774608,g
-15.14930113322676,-7.355321960717087,-10.141388667727982,-7.17258815028657,-10.082550704248645,9.567739993923075,19.619329868712747,7.24775319774608,g
-12.513871216885644,-9.83486994479807,-12.61064374524336,-8.311204900586018,-12.501512182401513,8.406450310253136,21.205529913144453,6.10130831206616,g
-9.806007613025,-11.957589392796788,-14.603888590020398,-9.139765177680227,-14.417471071840836,7.020894836248283,21.896855544990398,5.364208897691336,g
-6.926857307055874,-13.45185672076143,-15.848769347650116,-9.58643461927918,-15.60685348863698,5.5024057792148025,21.980624904455297,4.838731034894015,g
-3.8129656093075552,-14.164604371862742,-16.20763553479818,-9.615047134303405,-15.973001787586899,3.9135640426625855,21.554646106174715,4.295117003846781,g
-3.8077256017971215,-14.107634987860262,-15.70014998653483,-9.233001949105923,-15.547429316265916,2.314138893664288,20.417581393616125,3.6538700781624187,g
-7.012772048387586,-13.42231956313189,-14.46681010195594,-8.502136739681534,-14.452577163291721,0.7932441903445977,18.32639306541206,3.0180054863111723,g
-10.200348868762877,-12.297877474911047,-12.710355026944743,-7.548057744685451,-12.857552315017827,-0.5317139494306204,15.256897319111772,2.5474142184710753,g
-10.166994587548517,-10.90610943756449,-10.659181875080861,-6.549900264208216,-10.959989776714384,-1.546304241174215,11.446897425344371,2.3060062600948372,g
-10.136050033399009,-9.393145003959424,-8.56591083737754,-5.700522175030889,-8.998979816174508,-2.1799090802038026,7.290101659885183,2.220328375226313,g
-10.111625098216534,-7.916347039276826,-6.71107155631276,-5.1502766494997,-7.2605752132956765,-2.437144816601028,3.228839087236401,2.1682556033913345,g
-10.096786925344194,-6.678664971054914,-5.3759958593825115,-4.9687759855100975,-6.036169559040938,-2.4002223097277335,-0.27785398980285747,2.090807499558134,g
-10.093559909566007,-5.919791547078502,-4.788065060747401,-5.15849110837693,-5.548689907163516,-2.1974464530532236,-2.7324097557109788,2.0095970679224218,g
-10.102925697106896,-5.85746682328162,-5.073273222109344,-5.716811901569253,-5.901071183892227,-1.9664820985884437,-3.6576195792359876,1.9397010022265877,g
-10.124823185632703,-6.604264915198255,-6.237689650916795,-6.689393559525868,-7.072277324695483,-1.8439065713299247,-2.8624734818443085,1.8006450193593757,g
-10.15814852425019,-8.103587466721134,-8.171394951526585,-8.147146359554082,-8.938095165812125,-1.966706528482116,-0.7694989241254293,1.4330316237034637,g
-6.974097088561265,-10.128786606368532,-10.66901465078487,-10.086061401762553,-11.297436025027775,-2.4439809708380102,1.600355301685098,0.721552964475058,g
-3.804842670725185,-12.360732786691065,-13.474666911189662,-12.337186258301694,-13.915735659733556,-3.3003548150520032,3.1701617892333926,-0.28590136014240014,g
-3.8572217094005277,-14.507593541533259,-16.34581284352472,-14.5843666180128,-16.586602196404638,-4.448176808289728,3.4853357121133177,-1.3788825105860316,g
-3.9102255906578094,-16.39543743778728,-19.10149332927046,-16.49706522558915,-19.172920189888405,-5.728820864703744,2.911086757546884,-2.315703582372182,g
-3.961033888760775,-17.977235177296635,-21.624275778397646,-17.88338655860786,-21.592830773945487,-6.994621111954932,2.1886897198004363,-2.9814167368536446,g
-4.006826177973167,-19.268826426057725,-23.827119224293277,-18.75330564973716,-23.77192159733908,-8.170499082703584,1.7940721578029581,-3.448156413831478,g
-4.044782032558731,-20.269616299303756,-25.625380594541507,-19.256655988047072,-25.61478336388917,-9.261775872506153,1.6307283439697808,-3.898189324302156,g
-4.072081026781213,-20.924862435163533,-26.937695675854695,-19.548180750313975,-27.017356718410717,-10.311371794344158,1.1944108941922675,-4.475672729698263,g
-4.085902734904353,-21.147144301763426,-27.705655774498418,-19.67087941242579,-27.89774503984243,-11.330064172572103,-0.01773794447636732,-5.173508211390996,g
-4.083426731191899,-20.875164148131336,-27.91182698453266,-19.53157864141073,-28.220361769972254,-12.244693992470578,-2.1438374505302464,-5.8247304941587705,g
-4.061832589907595,-20.13185483531425,-27.588472544297286,-18.98608478783727,-28.00869048806971,-12.917124942276422,-4.818301786082162,-6.199785454920787,g
-7.285097665391035,-19.04933511471949,-26.820652942336345,-17.979168229886753,-27.348826096798984,-13.240241566946732,-7.3066867910342,-6.153164518844999,g
-10.336431940001416,-17.845448736952278,-25.74761849686026,-16.640023388385472,-26.383746094951256,-13.240002791996124,-8.83775619270269,-5.732120488105357,g
-13.368287958732562,-16.75754011105844,-24.559589491646996,-15.258807461058542,-25.300460082406367,-13.093456273583945,-8.96988833179289,-5.171578928888389,g
-16.574541498563494,-15.957293161045072,-23.476147934810314,-14.15330410925535,-24.30638652670408,-13.042419059528536,-7.84609504500483,-4.762078234577317,g
-16.539828264753055,-15.482679224835753,-22.69137211913982,-13.511389022678562,-23.580462613936955,-13.263749284725247,-6.250216108000541,-4.663412839257689,g
-16.52299095410037,-15.227843158669012,-22.30093685285816,-13.31019988226457,-23.205824719384967,-13.774057635916114,-5.377645826670838,-4.785030462159105,g
-16.52329022119269,-15.017407421916982,-22.2704037220838,-13.365498694062424,-23.140644391080762,-14.415373788166395,-6.280118408657559,-4.823402577692759,g
-16.54042597142675,-14.742962059295943,-22.497443823140884,-13.48541967521073,-23.283728983292885,-14.93390387659609,-9.194649111079867,-4.450054106906896,g
-16.57453736100875,-14.476177158892407,-22.937327668833877,-13.629570548960842,-23.602041651236426,-15.123142267436824,-13.236720144588029,-3.5402006465046774,g
-16.62620279695438,-14.459700199585239,-23.678800444709537,-13.955292377330759,-24.200576957150865,-14.950669417302837,-16.80870897363128,-2.2907870690198493,g
-13.429642157012955,-14.955788516474147,-24.8808119634433,-14.702463040443869,-25.24923710851038,-14.578045871423294,-18.52488785382085,-1.138282331052466,g
-10.400281941723652,-16.051062742165797,-26.603592198590707,-15.991668175768613,-26.813537023813012,-14.255080773721687,-18.02023735937553,-0.5211134880527855,g
-7.384745339800503,-17.564135379633235,-28.67166067287858,-15.226109103646852,-28.727692658789607,-14.16441611573461,-16.117713401639485,-0.642805948524489,g
-4.188671558781831,-19.13109366354535,-27.179974243986656,-14.421990746249012,-30.61848703024942,-14.318319758222591,-14.288258457040007,-1.3909208181974464,g
-4.227379128735595,-20.41169687482925,-28.734452573714513,-15.840068791806209,-32.077762234620714,-14.561819171970814,-13.727012885260217,-2.453144791561247,g
-4.235362771930444,-21.801099045868877,-29.83208192990303,-17.16211737625629,-33.04533166436007,-14.524110448722954,-15.716071905183275,-4.505208846379257,g
-4.20778300988855,-22.185836502262095,-29.688658927217638,-17.334843169436603,-32.812688827183116,-14.156318352098793,-15.649072404361812,-5.407833298175635,g
-4.161251635231787,-22.49683053418471,-29.35119705057135,-17.38284392458804,-32.35721683432328,-13.77429446910293,-13.519565105095424,-6.2986340314389375,g
-4.161251635231787,-22.49683053418471,-29.351197050571347,-17.382843924588038,-32.35721683432329,-13.77429446910293,-13.51956510509542,-6.298634031438937,g
-4.097340730318668,-22.61215637532759,-28.786754331664792,-17.226704525513107,-31.675906288002288,-13.57845196083901,-9.909182553953233,-7.108259401254358,g
-7.1990892434946545,-22.3042117376367,-27.79172284983081,-16.627294885396086,-30.61513624325092,-13.60862254924026,-6.494321048315375,-7.6157425586332606,g
-10.165222669668276,-21.41539592049951,-26.186711488541857,-15.380973018876485,-29.03342724066537,-13.709421897755657,-4.91410592054656,-7.56522227528185,g
-13.031333004451948,-19.971449254395097,-23.98242473285466,-15.959203893540288,-26.938445575592596,-13.638714849144609,-5.693889723417003,-6.829498991037012,g
-15.807816754816963,-18.158933411169443,-24.907262181418396,-16.244045703174912,-24.502093597081092,-13.224939991454539,-7.988732321545655,-5.497416476787857,g
-18.455575230297164,-16.213098489960206,-22.231626977246123,-13.958766282141317,-21.975071468398745,-12.459437816358612,-10.289372341900584,-3.827555743653717,g
-20.891804686784077,-14.312841055124295,-19.70694764019874,-11.946912926630905,-19.580414154758316,-11.469992176791443,-11.552812494783634,-2.108174730984747,g
-23.035542592498484,-12.541935341876263,-17.442606377582173,-10.313763268756091,-17.450646602983994,-10.401726905672247,-11.891766526757433,-0.5212000954155986,g
-24.86273988287126,-10.908576184088684,-15.449248506130782,-8.993717658242879,-15.62740289001174,-9.293341887401189,-12.270320411003548,0.9069245672128907,g
-26.42051066194886,-9.377512029589713,-13.705268724208528,-7.854699353611403,-14.093487820840526,-8.04553840445973,-13.49300486922019,2.254068895480885,g
-27.772421111962593,-7.8827158537111375,-12.181492747571394,-6.795675905556976,-12.787419579042542,-6.5072480475116645,-15.418656239744958,3.606089594216712,g
-25.722129469876364,-6.333489338295453,-10.80898276401317,-5.77358001989021,-11.590453732448092,-4.601042259561671,-17.080311237156366,4.988972570454051,g
-23.421536281165935,-4.651072069012072,-9.455994476377036,-4.772884251540145,-10.337459227612595,-2.37888706521754,-17.488117667143882,6.366719208772404,g
-20.59597712895926,-2.839709355243079,-7.979864313249736,-3.773798060097812,-8.894781926090333,0.021509195351813483,-16.309413161024022,7.687464366179114,g
-17.04591934368694,-1.0370491820743202,-6.328526406915942,-2.7523146533859624,-7.259657282001913,2.4547582673745114,-13.886678269807078,8.928011928957018,g
-12.808330463764344,0.5218897688860118,-4.59115495218094,-1.6996337672798645,-5.5781474268011575,4.806047615242046,-10.737030766305644,10.09664826164418,g
-8.17439140581066,1.6287447001591069,-2.931337621505675,-0.631148238320427,-4.03862677255375,6.97826113596606,-7.083686756509016,11.197137872854585,g
-3.518283419355625,2.236054075614889,-1.4438901955851886,0.4302252732050456,-2.7140937139324777,8.869160150007648,-2.8601360028243485,12.197288028110208,g
0.9574723713712207,2.5065729232366505,-0.047249909306130176,1.489230219603818,-1.4750411060917255,10.38199297049901,1.831925067662954,13.042381565805803,g
5.3710108254985895,2.7399261846783274,1.4992555173414304,2.606786079168116,-0.041873628371103776,11.479505295028684,6.307266628591985,13.705187400076307,g
10.07196795816466,3.2205284774674205,3.4502643829860764,3.8891673025780014,1.847666611245566,12.243637425195292,9.488139069045648,14.219656427180311,g
11.909660495552728,4.080570929535538,5.891054398532736,5.425803688020999,4.257737259368467,12.87175058080193,10.710014676641789,14.655499536231824,g
13.41256561297296,5.264802434076864,8.652322957980095,7.2140836423835735,6.991116818836138,13.573923588221746,10.422091323029495,15.050510477040365,g
14.336054243809198,6.622848370508199,11.41164145248573,9.143154737460893,9.716595201569007,14.433913068853446,9.999900068088287,15.368048700716031,g
14.485611730612382,8.067468925102817,13.92988797416065,11.07072410726842,12.215696091326912,15.359590067884245,10.706708594207152,15.532718236161372,g
13.85390657698638,9.679179351401473,16.241633336634315,12.936245736460975,14.555281349824948,16.18243205196754,12.713524116603093,15.521991400676034,g
12.644293761602148,11.664665216929475,18.63369209226405,14.80367290166692,17.0312214442411,16.821632313518606,15.06325150898478,15.424966996516108,g
11.145147958876013,14.184385300517437,21.414083958202703,14.414429434308762,19.917216589503735,17.36181511469039,16.583978526706023,15.395672533014357,g
9.530275335639795,17.172652415280016,21.1398133231385,14.122053015076284,23.21683237945124,17.97464223489076,16.92605027577357,15.525584435353542,g
7.724167394488231,17.549455940696724,20.80669273024609,16.119298187092795,23.074158694419527,18.754671074971174,16.842605841525224,15.748417937233999,g
5.436444710697029,20.311850385648206,20.143219821858306,17.695020944709626,22.530896570579873,19.609330601500893,17.49565203061759,15.87678258960573,g
5.798784219721922,22.31972486166485,18.931403677005044,18.560455942093835,21.391610606748024,20.298444027228587,19.37613808809104,15.757302586703485,g
6.127809413472278,23.428039392418594,20.479642517898988,18.646319403815397,22.8737341584013,20.60310662853816,21.773311973918144,15.418027992422575,g
6.423729714645448,23.752577189145093,21.340830782375946,18.125077029602405,23.749637800172277,20.495584773008822,23.300649047275268,15.073555531165104,g
6.686754545938794,23.52157476706686,21.745325110633804,17.255122874608254,24.233616007710715,20.167134710329968,23.04239291514716,14.965586462323506,g
6.917093330049665,22.897872883248034,21.7869456081528,16.179032902221373,24.36682076291193,19.884869061616676,21.267010828574932,15.16121525724904,g
7.1149554896754195,21.90984901271143,21.376902911304988,14.8586273433374,24.016655780174545,19.804450651233108,19.05740571178216,15.481007335811778,g
7.280550447513413,20.52606556952545,20.391321926028617,15.571201403979225,23.063880337913986,19.903692556907515,17.295260566791892,15.626986114380415,g
7.414087626261001,18.778942352431272,22.363866306503503,16.02236256224923,21.584855296777466,20.074286398670814,16.055013459617168,15.406335012510649,g
7.515776448615537,19.549283264214484,24.241956511162186,14.090973583109601,23.383695444735427,20.253470247773922,14.95353103520793,14.858670215916419,g
7.585826337274379,17.533140557986105,26.100221527479192,12.48324861462516,25.22821431089278,20.4599081666609,13.97398268037774,14.181009107422579,g
7.624446714934879,15.57462883596752,27.913323306643605,11.354190093434699,27.06910487532677,20.716816638674675,13.842842193362177,13.527303888792966,g
7.608236628050281,11.797981427315808,24.56732848005425,9.840405863389275,23.926647411732198,21.017652990169903,19.388102182604083,12.031103581030923,g
7.553825008899895,10.014332652995643,22.96378947395861,8.964086372530572,22.283114873525555,20.718248398235986,19.15615181448016,10.88680677537198,g
7.468821569540589,8.528482127496115,21.6723206154259,8.044959976449974,20.918267232641504,19.99028428466793,23.922379438374506,9.502947717802375,g
7.468821569540589,8.528482127496114,21.6723206154259,8.044959976449972,20.918267232641504,19.99028428466793,23.922379438374506,9.502947717802375,g
7.353435732669719,7.616435314297108,21.045473184442507,7.433611501551934,20.24864336129773,18.91782212474224,26.992929110317696,8.141094044654324,g
7.207876920984643,7.46810225499934,21.296366427146772,7.466425036600998,20.51549496806239,17.666795799053254,28.176478385720777,7.085751230069323,g
7.032354557182714,8.070017940466396,22.328991065863775,8.194736939685999,21.600104274710873,16.354753351684895,28.313648130537644,6.441541552579503,g
6.827078063961286,9.219645017096026,23.782827456174008,9.323308281876455,23.093163806629825,14.98099429632922,28.321011371774667,6.05841788210143,g
6.592256864017718,10.657465843104529,25.250936196565366,10.403594366052484,24.556049640938905,13.4788002210861,28.262821299696434,5.645433158348934,g
6.328100380049362,12.205787561736427,26.488076966279834,11.123952468841896,25.75515834524225,11.832665083500842,27.25014841715913,4.98420838757228,g
6.034818034753576,13.801347664683183,27.45016497266509,11.472870026315505,26.694315118878478,10.148812426688881,24.214697557129327,4.074617014226694,g
5.7126192508277125,15.4012201785746,28.15726270804431,11.66332991508051,27.448707272687862,8.6215621530521,18.909484499147034,3.1049627172675147,g
5.361713450969131,16.849432414300008,28.512272649560476,11.893678654721949,27.9531174861771,7.427341372025201,17.714177653758277,2.285871684691896,g
7.718988219923707,17.829579814038688,28.2363316625186,12.138014399736567,27.920105848070666,6.622493206506422,11.73722634565565,1.69142545600198,g
9.575337326520884,17.96544855775394,26.988861341614882,12.127979104664677,26.963693457515653,6.111926984695057,7.858246240073866,1.2282572766590611,g
10.940324023146307,17.011314028262536,24.590315640576442,11.537218290299322,24.845867571402096,5.712764084647562,6.378603439123805,0.739407865239903,g
11.829064869243354,14.991029683703818,21.17096528084311,10.222750377447168,21.655604234616796,5.271416339290363,6.356205492351728,0.14787563665093195,g
12.298300455678259,12.175816968346043,17.11958114202171,8.335743898771417,17.77413035509787,4.742474699112259,6.485863277863158,-0.4748565370142179,g
12.449916045160522,8.918069865567144,12.872349399496347,6.223800430043686,13.657047429197135,4.164973462944838,6.106234018470834,-0.9666200776931234,g
12.395503141122735,5.475108009932006,8.714654459838414,4.216043880550702,9.613858060980586,3.569017848465516,5.490623161881144,-1.2110794605838202,g
12.214123188000018,1.958702667437419,4.7421040010526925,2.4646994405277654,5.747226718427848,2.911767233285222,5.281606970400476,-1.2420658954975798,g
11.947952388869298,-1.5682096917282624,0.9783577534939927,0.9490198249227788,2.062402288503687,2.102413253704081,5.680349219869954,-1.2322986781365464,g
11.650211047414,-4.953929361413728,-2.4764604967516837,-0.3952065711468606,-1.3736984364730627,1.0840530679827651,6.124509392642624,-1.382545716989002,g
8.711941602492383,-7.914637052043425,-5.394116850542047,-1.5467140266320456,-4.356382546344117,-0.10145656602954337,5.690238850329505,-1.8056741502227176,g
6.562147116301183,-10.128501084123728,-7.49448932065236,-2.37194133888116,-6.599334885656039,-1.309766077158351,3.834504015366072,-2.48475389428203,g
5.4438791368021,-11.38330058770996,-8.576060524824374,-2.7023210455396867,-7.867886705618586,-2.3468857237832,0.8291604446044006,-3.3052100565424,g
5.523824027554571,-11.64770631108146,-8.59019510051332,-2.43175748036317,-8.077330070004274,-3.042117426316568,-2.491846487311765,-4.107308608284315,g
6.778085221985618,-11.01377398277026,-7.607191651619655,-1.5489452175566651,-7.28172003986694,-3.2924727176606607,-5.43123215669619,-4.718801825238435,g
8.98257217825064,-9.583744582023382,-5.729984702485902,-0.10035882794310558,-5.589364539670632,-3.0517022856540885,-7.89337090115986,-4.971697369387103,g
11.804507153126409,-7.423719725414062,-3.0630302230347013,1.8417545513535605,-3.114741014981272,-2.2930592679077226,-10.170972387436937,-4.728390862846107,g
14.918241213994929,-4.631663797427587,0.2240365452012288,4.14698860373671,-0.023332920148571645,-1.0061459956944323,-12.341664794760176,-3.9272999244900064,g
18.064506714443258,-1.4469142097672918,3.814312301103977,6.564244761016627,3.3930110403108054,0.7581174862122222,-13.969744158452594,-2.6296057249239913,g
21.029104997246886,1.7155483472078412,7.248599294338433,8.721308823086268,6.711143323781172,2.8511509342557453,-14.401293213781745,-1.0343256709846895,g
23.585701883646113,4.355270021713837,10.036344078976594,10.227622091283406,9.465140862153849,5.0502520944098475,-13.249303260073464,0.5581069832435515,g
25.47791803972789,6.0452672899266116,11.795080739921142,10.818777233877274,11.265254156799315,7.1169314460136395,-10.542892025660276,1.8197955561775472,g
26.482474818568562,6.555223016834731,12.330455399855714,10.438242788697703,11.878392575968338,8.828544981650849,-6.51398342822485,2.4651178043388144,g
26.51917758102694,5.87152499287497,11.629890222658574,9.204756879981232,11.247562128244812,9.974426611372788,-1.4063693286294487,2.2827630939217536,g
25.72232753079779,4.1310520881298025,9.807569785797806,7.3060201158449445,9.466890735512347,10.36687275668086,4.441647133324551,1.1382533474813585,g
24.41497615930148,1.5479733489380498,7.064725590616457,4.913142820810523,6.748813205400898,9.898712840996586,10.392309288296872,-1.0144513246555058,g
23.00687242247512,-1.600162561775517,3.702629886647916,2.1857499744791773,3.416515436420685,8.613559634540598,15.513907825548774,-1.3627670058018704,g
21.889210362753236,-4.939937327803454,0.1570309513381499,-0.6485090333383446,-0.08826981111336565,6.7254242349243185,18.948070082725515,-2.228300587767086,g
21.380995893201806,-8.00206396798771,-3.026344068963964,-3.233382780309107,-3.2403471795152257,4.555056210268667,20.42493864252247,-3.50221410802308,g
21.724508963611257,-10.30975327562849,-5.315534178194473,-5.127376279126572,-5.544576478894196,2.4072876282416744,20.456771125693727,-7.345920788929286,g
19.4609419632428,-11.518864127310078,-6.352998297275512,-5.942808790984806,-6.673746029994973,0.4616395909664158,19.896230363796988,-10.569703545692834,g
17.656171722861487,-11.511865944646383,-6.042063004512697,-5.485677803701108,-6.532134660221878,-1.2449336108249658,19.130079672771053,-12.854335443015833,g
16.281708863990723,-10.380982508173043,-4.5107835598752235,-3.8038366149913045,-5.211181113394789,-2.7259898561047367,17.654285875210462,-13.995048536781402,g
14.355050351705145,-5.529668933707713,1.2273366836497623,2.2553761295944086,0.20203341967982064,-4.667272356037813,9.248288949516617,-12.34323738132778,g
13.43648484862005,-2.143926125598432,4.948775095362079,6.079638269716977,3.8650063617297583,-4.753388512192815,2.4893802643898675,-9.405991437306607,g
12.29330746797013,1.6883330801653922,8.938061837904554,7.573577611942541,7.845408741728437,-4.065918326174694,-4.284440208370114,-7.874280518076231,g
12.293307467970127,1.6883330801653915,8.938061837904554,7.573577611942541,7.845408741728436,-4.065918326174695,-4.284440208370115,-7.874280518076233,g
10.781686471159631,5.736113165452389,12.923712016668986,8.866628382926494,11.836314838018229,-2.6499124144763213,-9.551018677041723,-5.50898016330913,g
8.800467812256263,9.664251069508307,16.57641666140952,9.816769924604484,15.481491986353035,-0.696692246038032,-12.48569219826693,-2.5792640331086423,g
6.269095926950117,13.138196705087797,19.591813967765997,10.307675719492694,18.468186184915222,1.5352325473824517,-13.216019655387393,2.9047015251957684,g
6.745723643914093,15.994072249677297,21.82905548678331,10.261983010584835,20.664673385460098,3.821992601275787,-12.526005141804456,7.688951476564853,g
7.201883306190318,18.32748137920745,23.386833820316056,9.653953429729345,22.18553558436266,6.049807159733768,-11.218712945406327,11.5747621327347,g
7.637640417893766,20.39996455205965,24.52944690389682,10.746369524724251,23.301908734037994,8.214155651238553,-9.535793321004594,14.608935075424464,g
8.053060483139411,22.413462212664854,25.501217125361016,11.325999991309322,24.247540475730574,10.332102835911769,-7.025372641488548,16.861251243667816,g
8.44820900604223,24.31928253810379,26.363029559841113,11.4974110880875,25.0641155382531,12.325728154909076,-2.932459449390257,18.198829757566457,g
8.823151490717198,25.80744891459039,26.96860646673098,11.207259313564865,25.596164891704188,13.96436371280799,3.1933722452678244,18.247159142526545,g
9.177953441279284,26.491755830850888,27.100269745026868,12.869444618222278,25.637290316136802,14.912586615035996,11.054023498966254,16.594221675488342,g
9.512680361843469,26.166210561655316,26.674975681130157,14.069137664745849,25.12969541206013,14.862656576264575,19.520241406686388,13.101869161871221,g
9.827397756524723,24.952229795368762,25.870062301737214,14.83966607449338,24.273439157090696,13.682047818402637,26.964521138485374,8.089836167661527,g
10.122171129438026,23.228465831093523,25.057951634614287,15.392390149518272,23.44701251282103,11.489471438470284,31.951523571631945,4.986277521320263,g
10.397065984698349,21.400820348654353,24.585533481675714,16.03635509846916,22.984091007001552,8.599656983211345,33.94453367646622,2.0571484820280967,g
10.652147826420665,19.701644888417594,24.578288853689195,17.050681789439928,22.98995155723614,5.364242836310839,33.45583527041999,-0.47171477407628154,g
10.887482158719951,18.178902023451194,24.94033994393092,16.364460409787974,23.361156132395624,2.0310381893253995,31.400299842975386,-2.5757670043628114,g
11.103134485711186,16.864833265807363,25.54798201001866,16.312546214915194,23.98708216998551,-1.2611047469432743,28.183453495825006,-6.795219196699756,g
11.299170311509332,15.958772295268892,22.99778057458526,14.207413613505702,24.947412236942,-4.361173292184324,23.393463969150535,-10.148288894591387,g
11.475655140229376,15.85495942075676,20.471973474345376,12.282417848824329,22.616745612338747,-6.990464769886961,16.389944863685294,-12.245428407148838,g
11.632654475986289,13.751471836667639,18.206185521514204,10.711952929244474,20.535902655081067,-8.75498329853406,7.222447717714138,-12.62092278779305,g
11.770233822895042,12.277119367828302,16.339422929836015,9.621720060649574,18.830906528082828,-9.290177015063568,-2.9310233149905045,-11.001423741793577,g
11.888458685070614,11.391083294321565,14.81748937485618,8.979375446953195,17.445923826181364,-8.438703264074302,-12.153570648756792,-7.514280505224467,g
11.987394566627978,10.878593641075875,13.414549974356884,8.572084801452613,16.170555004405344,-6.343029769617162,-18.740262743486685,-5.4307065210059005,g
12.06710697168211,10.456969331202162,11.85257191581287,8.086871120929207,14.751576090535133,-3.38772794195485,-22.075768198540537,-2.993990286909411,g
12.12766140434798,9.888164203898365,9.928561915481932,7.238223932798443,13.001934328190405,-0.01898332705507606,-22.80711768873779,-0.558076427817861,g
12.169123368740568,9.02228081526768,7.558446698374718,5.854879796990963,10.829794458845473,3.441457618444636,-22.13264391287889,1.6733418091747339,g
12.191558368974846,7.758781463713615,4.720310094094971,3.8758504946496943,8.184993721848421,6.856528263542413,-20.743151444423088,6.159965677832238,g
12.195031909165788,5.979686035783642,4.828354068516234,3.95385271807164,4.989347792123377,10.17523645719714,-18.299276313200515,10.018340589067972,g
12.179609493428373,6.217996765174322,4.877935539729849,3.955392053093452,5.038474672872221,13.275398032118895,-13.867437964614732,13.077001317878416,g
12.145356625877568,8.73430532316271,4.868196854609087,3.881781259400925,5.015921769649706,15.88844099296594,-6.8851192795946785,15.049009587954455,g
12.092338810628357,11.01198086100655,4.798280360027208,5.954698979968025,4.924249142857503,17.665259851489257,2.1646473266165103,15.652853848172882,g
12.020621551795708,12.953311026292033,7.881196191944068,7.508089054732975,7.929889971384492,18.32904539424552,11.84394711027597,14.779168481755665,g
11.930270353494596,14.474410072472105,10.492713152627617,8.65249778548824,10.446033006470087,17.80789935819747,15.30655617497774,12.572843467743063,g
11.821350719839998,15.552352781003169,12.677263652327486,9.502469106388343,12.507193231963223,16.260335333556114,21.82174492456752,9.372921549785977,g
11.693928154946885,16.23677209162526,14.502251525445962,10.143403476074251,14.181468669889886,13.973974360999009,26.180344038774052,5.558850031234695,g
11.548068162930237,16.63442770589142,16.05187034893219,10.650382438333912,15.558798340523799,11.20223835645936,29.142213488859433,1.4072875773102216,g
11.383836247905025,16.881352661414564,17.43329259441291,11.125638248960486,16.75634208930275,8.054710237873302,31.50891648463036,-2.9573986431226773,g
11.201297913986224,17.115946901484307,18.779525467086227,11.710326778101956,17.925769203734475,4.520487353504947,33.37699285319772,-4.814772295679786,g
11.000518665288809,14.771140216991725,20.234309694877005,12.557347186156663,19.237401113763443,0.5980412793744133,33.93965668416114,-6.557337779883051,g
10.781564005927756,12.770697321488836,21.922067069587843,13.785913703578268,20.837842700847265,-3.5758716440828935,31.979713658011985,-8.086235405641798,g
10.544499440018036,11.251474350107287,23.92009931508006,13.2279626094006,22.8057363557049,-7.693665300621545,26.711376843942656,-9.226004880451892,g
10.289390471674626,10.36589765391729,23.033144818639823,13.533253950594275,21.969863711695048,-11.35926609819937,18.41395099464683,-9.79801971303082,g
9.725301344146636,10.755750307435484,23.258840481177412,13.539650129784633,22.29254145570747,-16.14263358728146,3.7352389242625557,-11.024230312869983,g
9.416452193192004,11.936632532893658,24.113899804533013,12.789927284980774,23.17219809610135,-17.11391280083327,-4.788360167407269,-10.843568390634927,g
9.08982065626358,13.626253299408782,25.269814722890878,12.210477253653256,24.36537638963319,-17.26297561356954,-11.776833716105436,-9.03929063190159,g
9.08982065626358,13.626253299408782,25.269814722890878,12.210477253653256,24.36537638963319,-17.262975613569544,-11.776833716105436,-9.03929063190159,g
8.74547223747634,15.690200601928106,26.57735205295923,11.699128590255814,25.760236644967904,-16.673942549474525,-17.89321270806533,-5.6451350537264755,g
8.383472440945258,17.960136554119135,27.861275399038796,11.111374473429134,27.189583995707814,-15.342555255782926,-23.78902054768131,-3.525319033626367,g
8.003886770785309,20.20506294159105,28.907125787744498,10.287553030105325,28.40019550367548,-13.23842353531187,-29.298506485184827,-0.552053311755396,g
7.606780731111465,22.136308933252128,29.47849041470223,9.098275555702932,29.09526306275323,-10.42534152746871,-33.30347827951449,0.10533722546468804,g
7.192219826038704,23.460375376429035,29.359742036348344,7.477653652313957,29.025191224637677,-7.139255210028497,-34.37452097801643,0.7665117164685913,g
6.760269559681997,23.95393366138054,28.40781398191432,7.41039973934718,28.06793649850804,-3.76281666480392,-31.766320864567597,3.744338262169381,g
6.310995436156324,23.51771022095724,26.598795625303193,6.160247517976186,26.260575766889815,-0.7037580702208525,-26.099012058366913,5.939504628390765,g
5.8444629595766555,22.176088776239585,24.04523362300773,6.337422424357997,23.77071633998326,1.7564542022922964,-19.18326048913533,9.403241419041741,g
8.098900217014066,20.01911953532334,20.950447592122124,5.82086196696604,20.80948920400193,3.543953780272708,-12.981874638924628,11.165909975967157,g
9.833069653028064,17.123873885738853,17.501667736910715,4.834014549070374,17.519186571314115,4.734099492492397,-8.407602893874733,11.172987495468044,g
11.103738727871676,13.516256539263475,13.772299463432727,3.4978770393198575,13.910865740897256,5.390519498758488,-4.904291674697712,9.42909332111005,g
11.9322248632623,9.20952550036969,9.721052714682685,1.78221690959315,9.912118239308118,5.438274071307692,-1.1652910428617518,5.962001706283873,g
12.28948753254117,4.292915387759836,5.300863435716808,-0.41515897785034106,5.497429163512984,4.686925887447648,3.593637595184763,0.8761333363560609,g
12.1346438843602,-0.9969417717903177,0.595741246334628,-3.1233229621837424,0.8022383042154371,2.987924816474179,8.790481258872761,0.2514861125490179,g
11.489409003020935,-6.2707536480790225,-4.117288927932613,-3.6867530440657803,-3.858567718782288,0.40184041528825,12.658337526054623,-0.4352188729568624,g
10.496445535359824,-11.050193303149012,-8.42661193907235,-6.178270658302942,-8.073866646856285,-2.744917555671423,13.333443021616636,-3.50253761129755,g
9.409017344355728,-14.875104673110261,-11.933462301099132,-10.17607419146266,-11.47385572154435,-5.953500840825897,10.161097722178976,-5.859488838890824,g
8.502111985949034,-17.419087348949674,-14.401879037800786,-12.823065894992354,-13.851772666768923,-8.750202700462232,4.323676747620427,-7.3759053898860305,g
5.218738501530973,-18.566864324128904,-15.812640936256713,-14.193346396696398,-15.196536333708375,-10.87968936620897,-1.758552512501837,-8.101794005548367,g
2.8262903899881047,-18.40791934927155,-16.279216819662352,-14.543137891694908,-15.60695004157787,-12.3708830426667,-5.9287600567877705,-8.158805291297437,g
1.175248160883728,-17.141648808492572,-15.892041810695114,-14.083087418180146,-15.151345632768997,-13.42697743873605,-7.60173729466041,-7.600309165383297,g
0.13144995180840677,-14.952504014006815,-14.62540358709295,-12.81989611501083,-13.794812157535702,-14.224870228555218,-7.905697083975115,-6.341376211888037,g
-0.3309717516842179,-11.943723106686136,-12.391566702588054,-10.590097808703927,-11.462328151309283,-14.779522974406685,-8.653510861777706,-4.211128889066982,g
-0.1703124570435745,-8.182600283710778,-9.201875279354972,-7.2643829854840805,-8.188545418383018,-14.959546667121256,-11.022725074915673,-6.051125567086002,g
0.5784362799112677,-3.8294809808430275,-5.310714171151795,-5.483530000096635,-4.239600350926779,-14.609739068806629,-14.875477273286085,-6.656990501620439,g
1.676589391479456,0.7497723912082381,-1.2331900113489973,-3.321707008704827,-0.11867282480587668,-13.67452290090506,-19.031221166778927,-6.136104947875301,g
2.689211524624653,4.997075295183274,2.3916505261816763,1.2589860851778685,3.562429361699755,-12.248121993119844,-22.148672156543036,-4.837839823407273,g
3.143811738167583,8.33132810523962,5.026367995311655,5.000542884283524,6.288858202109866,-10.535782015928865,-23.569065590950068,-3.219827118503062,g
2.7334636280864517,10.379518531828424,6.418893574215202,7.556207968817608,7.809889180012371,-8.754554877842839,-23.581968287858736,-1.6766778576825971,g
1.415441632361996,11.109753826846946,6.628045844732793,8.927975887966406,8.159127962142074,-7.035059705152387,-23.023087566912935,-0.4384340746098164,g
-0.6574190757307828,10.772177831500489,5.8858845602709,9.318555807461378,7.525501825568367,-5.38844280667192,-22.620904241606752,0.4223360398558028,g
-3.2936061176879954,9.703751436112235,4.419873738542671,8.91425591314203,6.097332462109433,-3.7512288890473,-22.62199166134977,0.919736917836647,g
-6.364817404585927,8.151821563231612,2.376064168208991,7.7772845348332735,4.009557024605318,-2.057510982560496,-22.827487517198726,1.0875406750693297,g
-9.779674031662418,6.235740765093576,-0.12510194080055737,5.915275575100303,1.4060317551756047,-0.2855256316522473,-22.76786608463454,2.8869200120813203,g
-13.38220080036053,4.042071216116446,-2.8859811841216096,3.440437393371048,-1.4765691906351168,1.5256199592885193,-21.820113805579417,3.3134072215573647,g
-16.888812418465253,1.7483359647480015,-5.584941332048245,0.6680582191354085,-4.289732595656143,3.273073968738294,-19.39426596263702,2.438326996083586,g
-19.932962550187565,-0.3391621041427667,-7.825971736240516,-1.9342231641451655,-6.6353169124195,4.8116356012705435,-15.302651526781464,0.5590866018173049,g
-22.193531069395835,-1.8736317497024797,-9.259112492993676,-3.918586626973229,-8.176819574536237,6.014765060240918,-10.078078195468267,-1.8862056682247192,g
-23.51769331777101,-2.618823146800969,-9.705111003333213,-5.034073561960357,-8.744652458611018,6.846963619266009,-4.892307938213251,-4.437695655671772,g
-23.950480794465562,-2.5421247338027357,-9.203968429840028,-5.283749535411848,-8.368205206611828,7.394055485215202,-1.0484941609847318,-6.696192599582018,g
-23.65057291880135,-1.774965303321555,-7.948552416282619,-4.82644724567832,-7.204007599626739,7.834505110562716,0.6532207041346637,-8.346531724726022,g
-22.763164877880932,-0.48589263720099857,-6.157219058671613,-3.818866636373111,-5.420200319634001,8.377676180546413,0.3663283658576596,-9.156931235928356,g
-19.487098043514152,3.241441441006601,-1.5856493627677062,-0.47913173856688634,-0.5084543477431129,10.322765174073487,-1.0022887683437225,-7.894530840925441,g
-17.277181819072677,5.486815253210543,0.9120110294007221,1.6020944883936452,2.2833448601994215,11.661449421075293,0.8608166781549456,-6.006560544709368,g
-14.98485497773294,7.739688362480431,3.2911802006172857,3.6108551118277687,4.9526271558853905,12.969063840948712,4.8543133389611395,-3.5802061343739005,g
-14.984854977732942,7.739688362480431,3.291180200617285,3.6108551118277687,4.9526271558853905,12.969063840948715,4.8543133389611395,-3.5802061343739005,g
-12.926445735910033,9.73823482560178,5.3278594639071155,5.252824858707017,7.216302920193385,14.000780970393023,9.686269218925647,-0.8210876407132941,g
-11.350807358498153,11.258916312416499,6.849768318971002,6.369455986106088,8.877215410110653,14.630839717016787,13.615582118618596,2.1730884197816205,g
-10.341743454540943,12.199290619477448,7.791493980718393,7.002029113529225,9.884543228623167,14.904101363286495,15.595806905289498,5.375326019609669,g
-9.82101501431533,12.5931987770641,8.202131821826049,7.328976968060109,10.327453025553826,14.985755884963828,15.883525812095252,8.708746583862515,g
-9.651140861275634,12.542969944463726,8.188822302227988,7.516456780579245,10.348746722551994,15.043648050747404,15.706029490656741,11.939869422064374,g
-9.762156360395275,12.118516703710759,7.828971733671919,7.588485885434312,10.028100390653758,15.135535275806763,16.224308098906697,14.689301355147421,g
-10.20049176010378,11.31157005092322,7.1281867907238805,7.4203852713126155,9.336583733987194,15.184219622395606,17.52886242874037,16.588268614416457,g
-11.057024466167647,10.088287983228991,6.067441019634655,6.8651024006028845,8.212376585569377,15.076422446257354,18.494941981225807,17.490552444888245,g
-12.337509240090812,8.4846487995956,4.688682694029721,5.90242464732317,6.682815442345726,14.812863192834442,17.748538019623407,17.576345620621172,g
-13.894334763437143,6.6451269814147835,3.124994210519818,4.677594372927098,4.908104879303724,14.565791102459372,14.992901022838506,17.242577363769886,g
-15.486424352422427,4.7687017006875685,1.543735149490398,3.401848935834292,3.107837175450375,14.572548285717279,11.459732175581744,16.844085571129465,g
-16.92109913378183,3.022013305922891,0.06098422479126908,2.214225821125837,1.4449868776397579,14.95601707600638,8.978328073957002,16.487766481625965,g
-18.158766245471845,1.502427231226473,-1.2945952390779791,1.1262284137827865,-0.03473226566065328,15.637280424363334,8.489268342300537,16.047514894388907,g
-19.28935381635249,0.27156125403889436,-2.5435199425589987,0.08272621296343283,-1.3706795605605777,16.41256760672568,9.368079469478804,15.378655560514039,g
-20.39662884710763,-0.594048475567143,-3.6819583236396562,-0.9299892337141824,-2.5968526885543897,17.11590391032912,10.11866467839208,14.537247586963336,g
-21.426724059475838,-1.0038050574814956,-4.638698842475204,-1.8277155307169466,-3.668218815885892,17.729455303358826,9.735845656507362,13.809802023190016,g
-22.180977211290287,-0.9189764322929778,-5.3020329764220016,-2.466400300182408,-4.466879555742144,18.363996728110255,8.53151612956501,13.52854356336142,g
-22.448821916435243,-0.4206360597947215,-5.592349263991421,-2.730728850335786,-4.882009587465461,19.139875362127903,7.778484537114393,13.833080150640882,g
-22.17592835251948,0.3023432202304801,-5.513064745676544,-2.5900402746199838,-4.887643680042773,20.073285707550596,8.549349167489577,14.579666971144258,g
-21.535887199127835,1.052362039743252,-5.142794007018414,-2.0855858902102757,-4.555063275079618,21.06162587592116,10.796482829351174,15.461984886241826,g
-20.854344082175675,1.7187317240821407,-4.600609656249422,-1.2934926310897612,-4.017408811629519,19.446745726459728,13.502884488433418,16.21899880700148,g
-20.43975656105645,2.2780892718596,-4.02927073367085,-0.3229118118508059,-3.4396293942859826,20.176237252358607,15.73237981475449,16.742745476281865,g
-20.427366627173512,2.7163712902941493,-3.5837541347819672,0.6603837805409569,-2.994978155465193,20.68754054266758,17.504800325207903,17.01832530684089,g
-20.72979004465323,2.9776153100195044,-3.3831490301076683,1.4515049080878695,-2.8113853223939262,20.929091632306402,19.604328526294186,17.000745917160064,g
-21.126513656222222,3.0033296205333206,-3.442090485239607,1.8906633380670688,-2.903950144904861,20.819951624538934,22.57824296276919,16.57804642480114,g
-21.436608819537195,2.81075752909592,-3.6595668184245453,1.949081919202219,-3.169783641406407,20.300508256999652,26.012388034719027,15.653715552904373,g
-21.65319373281517,2.5114815205617926,-3.904216448869235,1.729552287197634,-3.476983182330173,19.394129003836966,28.77212378686321,14.245590103226542,g
-21.938257709365242,2.239455050094959,-4.131522653916736,1.371888082121508,-3.775382806868489,18.20874796600354,29.85873568801271,12.48967065021294,g
-22.482624203804335,2.0533206748035466,-4.425221198406069,0.9428081082268378,-4.1281793023038835,16.87963135588058,29.04349066586561,10.549214612378256,g
-23.341027340065427,1.9025569215660483,-4.921256816255862,0.4017550538602361,-4.641061206170049,15.51003304249626,26.823003135834586,8.530280802601457,g
-24.368668877870853,1.684545562724137,-5.677545942613919,-0.33354089110539425,-5.35587578313044,16.67595965195635,23.88475847023702,6.489670855388617,g
-25.30791738282319,1.3311707615309674,-6.604343581252382,-1.2827385590116245,-6.201202307937475,15.381583522247746,20.614761867417506,4.513712958491004,g
-25.964676700925555,0.8327755915490558,-7.528095843602465,-2.3549256232341262,-7.048766705568018,14.219533725428331,17.08358150117356,2.7635352130263824,g
-26.345515654278586,0.17423696890372897,-8.348018453347713,-3.4035455007124336,-7.8383805071123165,13.292417858997675,13.489635811847663,1.4135817834484352,g
-26.647740128912385,-0.7347818485616833,-9.14397741932385,-4.333535220491896,-8.656291351377636,12.664134230805924,10.53680908480393,0.5265483887428373,g
-27.10434403314659,-2.0268008868466536,-10.114704295590231,-5.156137121468719,-9.668572156176308,12.275880341734354,9.213492143412122,-0.010959864833120392,g
-27.807564125547238,-3.7372868944793547,-11.380468503442417,-5.93975670324477,-10.947333436280394,11.937004686564602,10.056652938551847,-0.41277262483676636,g
-28.656674712957575,-5.688983711409594,-12.829939189696749,-6.714049083512288,-12.35522479763773,11.420078552240547,12.58127752641471,-0.8321836928980606,g
-29.46375947565299,-7.534936295707209,-14.162187628669809,-7.4289982611304755,-13.6125147813318,10.585810538081857,15.44211417462878,-1.2597101814444305,g
-30.107572477736568,-8.951667663045075,-15.090305965564443,-8.004752225577539,-14.4890216673059,9.438413547813628,17.231631731893508,-1.5743539584468542,g
-30.59291090544594,-9.829267233202717,-15.527668442786322,-8.413250354595068,-14.945549262750955,8.085992146461653,17.32583463374594,-1.6997750881069806,g
-30.98020286625619,-10.308242343301451,-15.613467433439936,-8.71243137773572,-15.119292661522195,6.6552117277349065,16.21366683929653,-1.7189947550133773,g
-31.440241302366935,-11.06403140725079,-15.64208350496414,-9.418137263292095,-15.330980312182945,3.752884814111707,14.92660444183762,-2.2611089556522534,g
-31.41461140492488,-11.603286838749302,-15.838984793588017,-9.984648753400803,-15.557489742902726,2.1841095548650973,15.642042500563042,-3.0121587592936288,g
-31.265436154495752,-12.197275816017799,-16.14954922968899,-10.715908433080276,-15.888424723442043,0.4509439579655403,16.007554397761265,-3.9645955406136912,g
-31.265436154495756,-12.197275816017799,-16.14954922968899,-10.715908433080276,-15.888424723442043,0.4509439579655405,16.007554397761265,-3.964595540613692,g
-31.145576103594454,-12.740456557482569,-16.527899410599296,-11.572568927860774,-16.336248663025803,-1.3975963755742842,14.443807082131121,-4.913728331624165,g
-31.180588706628765,-13.171701205357158,-16.96272111022312,-12.483465889164085,-16.929934969029162,-3.1763976141049595,10.1358078523269,-5.695277604824755,g
-31.345166411493494,-13.496201032096966,-17.467649219579197,-13.360159383358436,-17.67939811607234,-4.625802804773563,3.693261350979332,-6.239819568300523,g
-31.456048177760106,-13.76261670375479,-18.042237436598977,-14.126985840262407,-18.54028827333871,-5.530338258050833,-3.034919170147248,-6.5611204363493965,g
-31.303706301506065,-14.026324749704452,-18.65337372217092,-14.7587584660062,-19.424549008078277,-5.833461887138677,-7.883903050503885,-6.716972008909555,g
-30.81753450131422,-14.310927168258548,-19.24476665437438,-15.28962177845732,-20.24036058945604,-5.684746233647219,-9.60254719795235,-6.768410554279702,g
-30.1220496413065,-14.570696190248842,-19.74352552192924,-15.766352548119631,-20.90654909126459,-5.37047139410083,-8.700157143554607,-6.739660687518675,g
-29.435706737219135,-14.68111643119929,-20.05491550300974,-16.178319885076103,-21.332893561873718,-5.141500666981299,-7.185216437467245,-6.5918712568400295,g
-28.904643506471523,-14.497998554521498,-20.079479903853063,-16.4410218835666,-21.422490220306862,-5.053389998623377,-7.11640507071967,-6.243791816106794,g
-28.517321044275707,-13.97533815726194,-19.773324359534936,-16.47088842486619,-21.13171581793439,-4.962013500528544,-8.984389042596513,-5.648636508864579,g
-28.164004548836182,-13.253539016318836,-19.209972675598916,-16.291813631854225,-20.5381175700091,-4.69446309646528,-11.335338038011987,-4.875563168377772,g
-27.772341634383633,-12.620748864979808,-18.576210808328888,-16.065853644598832,-19.835276458213613,-4.243411955405744,-12.050526463007731,-4.117091697568285,g
-27.393319405716756,-12.34514483417404,-18.084496178781787,-16.00126556800074,-19.23963433834202,-3.8027840597260107,-10.206538421694741,-3.594760384534051,g
-27.171185748139475,-12.493069365572875,-17.856793805692693,-16.201259506944936,-18.8758123255924,-3.6103383085018295,-6.94902964700596,-3.4237482335153944,g
-27.236474864498526,-12.876097864183848,-17.860901197472124,-16.57274617658026,-18.722429588708955,-3.733492943586841,-4.689761395145138,-3.541355857103878,g
-27.616925487702684,-13.178480142045562,-17.946732605149542,-16.87335533132444,-18.654157322162753,-3.975759527380756,-5.272806187384743,-3.762494144743205,g
-28.23153142803139,-13.174548448525476,-17.962031620418273,-16.872425314630895,-18.550272260901718,-3.9835158239538453,-8.515289358224695,-3.927414224207112,g
-28.956670199201312,-12.867571065422052,-17.86392567649747,-16.509865579717236,-18.388404895138258,-3.4832137628096143,-12.264463318196468,-4.027689061574447,g
-29.697391786072483,-12.440660206731708,-17.735792007046335,-15.927663690253993,-18.24377701849546,-2.474554590465286,-13.975450408271708,-4.204042977322581,g
-30.40396816417141,-12.068174594699117,-17.692619517046506,-15.34528367990587,-18.19169077783545,-1.2250712403850788,-12.560606149819934,-4.609857763143457,g
-31.031862478466042,-11.754937200713737,-17.756637413719503,-14.88121672988803,-18.205155396200894,-0.06657964040307629,-8.986908894061681,-5.2494555793473285,g
-31.498205877754266,-11.338774023544364,-17.810991818059737,-14.467619983343528,-18.146031329334797,0.8347028112358503,-5.2059192087605055,-5.926446032442987,g
-31.690557140013084,-10.641921279583638,-17.66701686170853,-13.918691288282043,-17.853813955111196,1.5434669861122423,-2.49980418429139,-6.345722287320456,g
-31.532399447932427,-9.63193868066267,-17.18710233946765,-13.082960602455936,-17.248564868020072,2.2245757365595256,-0.7351806649127071,-6.286025689686634,g
-31.05010604541257,-8.458071958247016,-16.372532828663143,-11.955440363569059,-16.370469468220257,2.958636401368037,0.9919776806674389,-5.711350686609426,g
-30.37313240772368,-7.342207373409994,-15.359988359906513,-10.676657819138885,-15.343626085293007,3.668296244155602,3.1365555648629844,-4.7507785617055776,g
-29.651926304918042,-6.421246719831894,-14.331965599868056,-9.43728223869878,-14.298961386986495,4.199498335416948,5.0906736572045705,-3.581493518830375,g
-28.955997919963114,-5.671561218992283,-13.403931417709412,-8.367297230633584,-13.305525689999513,4.472907060115597,5.662270994653529,-2.3130324363218135,g
-28.24377596338227,-4.975979303156221,-12.574064611476363,-7.488338024618876,-12.357107791111464,4.578169815587268,4.15882707527669,-0.9572310645601989,g
-27.43884207795646,-4.273521324258296,-11.777121922050934,-6.754263702849599,-11.428063066404722,4.7327901053146055,1.1248530226068276,0.5015881791422278,g
-26.550832654493966,-3.6605503462016484,-10.992921974148093,-6.13562939183573,-10.549918514405656,5.129476914424663,-1.8990390745934473,1.9979493164796978,g
-25.734759604453256,-3.3565700780768566,-10.310463855725393,-5.674993272647652,-9.834307329547576,5.787355644847014,-3.4018356473004685,3.3296698842043972,g
-25.231094081878837,-3.5691166102693117,-9.89654084140236,-5.477268815868935,-9.423187539082232,6.526269285128319,-2.860848886303335,4.208164844384856,g
-25.223503888739494,-4.371008257905684,-9.904383870344532,-5.6576982582590745,-9.418584210856979,7.083081257572668,-0.892865887840415,4.390644626713362,g
-25.71189054086792,-5.669845472710881,-10.387909161295376,-6.285223503493565,-9.840585274836176,7.275427017946713,1.3799401662740318,3.81375842724891,g
-26.4870837842008,-7.259586384787546,-11.256289968565977,-7.334692590163473,-10.609127585351697,7.097203833918667,3.115051279371168,2.645870631166997,g
-27.227452409658856,-8.897656090745345,-12.279651000436036,-8.655738886919384,-11.537403066662348,6.698624058703506,4.138440923090387,1.2209558707244432,g
-27.65962609051578,-10.369938212835367,-13.156995048848975,-9.989938441420094,-12.36425200003518,6.279391711787449,4.8573193548487215,-0.11399143265356768,g
-27.681685230055233,-11.534391421481669,-13.634456335981062,-11.061338164002773,-12.84770771185326,5.961642669475676,5.882398330447344,-1.148597407520855,g
-27.37085906439346,-12.337163583815855,-13.61084477497285,-11.701916471345772,-12.871821854612625,5.718489008561623,7.564874857606435,-1.861841730460938,g
-26.88008769712918,-12.79434294549882,-13.155343074575029,-11.919712921133607,-12.48081972097372,5.408261991843312,9.68902196619277,-2.3488348950919025,g
-26.307796054228874,-12.948142141726738,-12.4234198876336,-11.847482540746743,-11.810429860538665,4.892271107413562,11.550017633990256,-2.684255024292517,g
-24.780175924340547,-12.412670299513023,-10.496824505335649,-11.180188999294659,-9.977159800358535,3.2749581440727598,11.805362281524435,-2.651270918556743,g
-23.682486674504567,-11.70337860201576,-9.23771646095016,-10.434388604540255,-8.756424191772327,2.4569186767377653,9.955349213266915,-2.03493806863657,g
-22.413219269667668,-10.742021820784299,-7.7200873520670354,-9.237570081507684,-7.275907536564562,1.8340391597137937,7.338205131953688,-1.0008963924460375,g
-22.41321926966767,-10.742021820784299,-7.7200873520670354,-9.237570081507684,-7.275907536564562,1.8340391597137937,7.33820513195369,-1.0008963924460377,g
-21.175708807312418,-9.68691303277476,-6.07303604349501,-7.64370124800961,-5.668180850761097,1.4519719710947239,4.536763653933715,0.26257141427178776,g
-20.226734368440113,-8.788787105196306,-4.6154236986598365,-5.948599979640629,-4.256231949314069,1.2521938192279827,1.9405073775380923,1.479801249270515,g
-19.74743399346955,-8.278759925858136,-3.718149200852724,-4.556181564778663,-3.405841103628707,1.127793090925529,-0.3865382629733844,2.425800798907374,g
-19.749242206716286,-8.231503751308804,-3.5871811511215355,-3.7452437493035715,-3.3002122394882596,1.009747803563853,-2.587237953941365,3.024291471813729,g
-20.0837778325127,-8.516113629162101,-4.139833118461596,-3.5325763607678704,-3.827902799997795,0.9179856664712058,-4.710264003245806,3.338148215815475,g
-20.5514828158422,-8.886993500440276,-5.081635858649318,-3.7471085783437026,-4.6874629462256365,0.9302645099684819,-6.517932756871167,3.4681812408934816,g
-21.025239361645852,-9.149663812639323,-6.1225478089424445,-4.2336783381484455,-5.619017445940726,1.0984394195778058,-7.6138394277861465,3.4495998497104,g
-21.49621396678026,-9.2738272136197,-7.160102343849166,-4.9917579867129245,-6.570966933410996,1.3935713864902304,-7.74191909326075,3.2340111318057816,g
-22.021251858593665,-9.374546095300627,-8.297069373300529,-6.132325613637404,-7.682817163092968,1.7244083422926901,-6.931552920715634,2.7637597503732336,g
-22.63474298228124,-9.591412394507216,-9.699528966973823,-7.712916293418897,-9.120256180670376,1.9973128659843162,-5.395103566911504,2.06028448475945,g
-23.306353260236065,-9.970318578970291,-11.419351524777383,-9.61237311524334,-10.903212612551245,2.160709788675009,-3.375042873996496,1.2435827721306763,g
-23.972667911106935,-10.439837692358473,-13.322776773781033,-11.556830303344714,-12.861931287042925,2.211390677936545,-1.1058274155660572,0.47325973125086007,g
-24.602359521059867,-10.890744944756374,-15.176481574263402,-13.2712066469187,-14.75163571634649,2.1729139865450557,1.1617380567799713,-0.13035460722321535,g
-25.22817081049589,-11.278607401335506,-16.808721656952592,-14.624846690251303,-16.421447065138928,2.063833358548935,3.1735984624653932,-0.5248749733826379,g
-25.911556568401277,-11.650897783087355,-18.19840984063038,-15.648901211898558,-17.882467128704842,1.878215596398038,4.709754293522938,-0.7305428189711528,g
-26.670853946656024,-12.075682718158177,-19.418917848920753,-16.42158062225122,-19.219037887912346,1.5990851999136153,5.610421848436628,-0.7898521261783182,g
-27.444779812192042,-12.549296090350726,-20.508116420857,-16.942277389164648,-20.445289356578723,1.2335864964931138,5.815936755111088,-0.7412299810190264,g
-28.13269869221343,-12.978876779974698,-21.399467949171846,-17.12166463069321,-21.453615967107726,0.8266568543877757,5.4029709570137125,-0.6229241687339571,g
-28.672873413047142,-13.251922082473317,-21.970836190822034,-16.890478768093352,-22.0908863773413,0.4332570768743812,4.538051138139752,-0.487859164582667,g
-29.07711892409381,-13.316495986911955,-22.14846125196182,-16.30703486846219,-22.272846856733516,0.08415206629907881,3.3831906866747516,-0.3979536821937832,g
-29.38786625158452,-13.196260627099312,-21.966591309922407,-15.550884178038448,-22.036533463265396,-0.2150073916212485,2.1025233429406733,-0.3921410617880817,g
-29.606172521579037,-12.935335549068196,-21.536514750088788,-14.805617120907295,-21.503912340092658,-0.4618348966472233,0.9473787588978917,-0.454059174267847,g
-29.663018869030644,-12.526992612799912,-20.95328366830957,-14.132313750948025,-20.79265539730571,-0.6455911274904614,0.18195833324710814,-0.5055378942688326,g
-29.45720478236754,-11.887853274320857,-20.216587552148827,-13.437878563077623,-19.937328245107874,-0.7461657269885553,-0.18775816626725153,-0.4295222564209086,g
-28.924775716830975,-10.906276767919428,-19.23995323386113,-12.566584871539504,-18.884671621912396,-0.7262494188527366,-0.5235698873131616,-0.1119416303754867,g
-28.086161632606366,-9.536630507263563,-17.9526042419398,-11.447096817926838,-17.57642009714079,-0.5291235832964999,-1.2395830302344757,0.5116699066631113,g
-27.037233667688298,-7.862188210985897,-16.40402461274775,-10.175438984466194,-16.04642418931339,-0.10700072896496807,-2.3619916675735446,1.4253601586022673,g
-25.891741257078337,-6.06316232238864,-14.76661858193054,-8.958519496253471,-14.43329278765762,0.5373939348362947,-3.477347212764478,2.5371618560278146,g
-24.721566151326776,-4.310407837957635,-13.231261829661289,-7.963942814950673,-12.896277806226527,1.3432200983884068,-4.107685931563869,3.71517519315014,g
-23.54257492005926,-2.677045350386519,-11.89516781648329,-7.210040355685481,-11.521228426972238,2.2269356609579622,-4.067215944062859,4.82649719950156,g
-22.347767089536198,-1.1379168176984045,-10.73371460242496,-6.589806408964762,-10.295840664684516,3.118979293613717,-3.483468092527459,5.754318732981886,g
-21.1439848877021,0.3604268547320711,-9.656667631273185,-5.993430301208154,-9.150828979998016,3.9703743703527152,-2.6005606384869506,6.3979242594882635,g
-19.95696487417981,1.8287078450554055,-8.590556768975834,-5.411418656213173,-8.02173145035369,4.743065588921436,-1.6183313756034416,6.678712677761621,g
-18.815904613950114,3.2094776414644293,-7.540016841091405,-4.936990397328529,-6.904481768570219,5.40684047879382,-0.6420624599475501,6.561779690962259,g
-17.749673034419562,4.396387603173888,-6.6060573134430225,-4.685546939677879,-5.887038626186689,5.940327168311486,0.31409216893663844,6.075270743463994,g
-16.80010465427046,5.277601592446368,-5.948306483535785,-4.710185159285566,-5.126819664989116,6.326193474860373,1.3118591450189494,5.303003599407923,g
-16.026448057508762,5.785818385804789,-5.6994153630540705,-4.97590966735094,-4.766087608530121,6.5460097446503624,2.4734821313674304,4.351332243099309,g
-15.481817220068184,5.937626344566995,-5.878292393519194,-5.393759542168929,-4.83598995764582,6.581610834856988,3.945088765001672,3.322002265475908,g
-15.176158186896533,5.8427560789913,-6.360291361700442,-5.866302566439459,-5.220767376891659,6.418347247046361,5.766607359986331,2.3200404165348494,g
-15.059193581918844,5.6730438428754555,-6.925555570397725,-6.29901807589573,-5.706786756453283,6.052259566202515,7.6510310209499455,1.4841514203478066,g
-15.043014848573112,5.599356253549478,-7.358449055134386,-6.585351325164693,-6.0837725287657936,5.514479349873598,8.905428446937345,0.9876331167992591,g
-15.054073171126069,5.720563838170298,-7.547772440898557,-6.619003259145735,-6.245460357516093,4.901198056301654,8.772767806852517,0.9698168973508785,g
-15.1831469088998,6.368873189981495,-7.474104850178739,-5.901205872065328,-6.216176372278911,4.013122596815555,4.526562033008803,2.1587836427335896,g
-15.441526138399363,6.618330454662987,-7.5118965310054024,-5.43465034797708,-6.3200485686265555,3.86778980896793,2.3410587586943405,2.856736341881321,g
-15.887323706973637,6.675058654903462,-7.674832447283601,-5.120273405299043,-6.557983251929338,3.8228353693251336,1.276348866849997,3.2993038348283634,g
-15.88732370697364,6.675058654903462,-7.674832447283602,-5.120273405299043,-6.557983251929338,3.8228353693251336,1.2763488668499972,3.2993038348283634,g
-16.45481396522796,6.5558523170174325,-7.84845443732484,-4.951556511546864,-6.796732301683596,3.7638661031589913,1.1294291425094174,3.505078515019617,g
-16.99996698648641,6.3530036672237005,-7.866702698129721,-4.755356947497175,-6.8653281937474615,3.6636840005840776,1.1150886579398387,3.695056956596641,g
-17.36966701086144,6.158074368396223,-7.629475307241641,-4.336193094334926,-6.677899874071795,3.5889701565590513,0.7743380114251971,4.080298522904453,g
-17.47273178129368,6.006978899390465,-7.157137669477211,-3.645255565683505,-6.2779360999703835,3.6129918393703084,0.50546487313502,4.65958550852736,g
-17.310010442727016,5.880546477464385,-6.559509278164805,-2.8316857829039286,-5.789606557556567,3.7180882698673834,1.1935381276035517,5.21266942342987,g
-16.952727617813565,5.744813160272624,-5.960459792612356,-2.1329354344532594,-5.329070898207236,3.776474892123198,3.280730184449916,5.4964623589307955,g
-16.4885327631306,5.59224232642385,-5.429840301459095,-1.6911939655061143,-4.9354923963774855,3.6343378729405176,6.163986482050159,5.465456185223751,g
-15.971225125761702,5.455391306731426,-4.955365685037943,-1.4433990999686876,-4.558287793726383,3.23691366365332,8.544690629115077,5.318124480476908,g
-15.40654706687007,5.389914121472702,-4.464360440612671,-1.1762339489129925,-4.1053784855926505,2.6819092479253848,9.47907470665706,5.329275691541264,g
-14.780292233964994,5.444968964361841,-3.879563224633779,-0.7024489408075734,-3.517256478577315,2.137248473783371,9.161043280191599,5.616992187986616,g
-14.103038363016747,5.640732537472713,-3.174688087009282,-0.012860093438039932,-2.8126927616483393,1.688387106923106,8.666056336107948,6.04671370123368,g
-13.435379427362927,5.955608049034471,-2.402160499455183,0.7153131069785805,-2.0831430397181068,1.2600653333323595,8.896834735361002,6.3512404752131815,g
-12.874923695420671,6.315157442511024,-1.6850319423059141,1.24556970133566,-1.4578728379951107,0.685623628994921,9.7650965710202,6.356043664394849,g
-12.512073378562134,6.589616569692188,-1.172093144698805,1.4345447957921507,-1.0626894593040876,-0.15170130937471343,10.36121468960559,6.11362870451497,g
-12.378539866992618,6.624329604541627,-0.9613285102884426,1.3062379378747058,-0.9697586037202607,-1.2391218056362698,9.853300377705931,5.8419692825894165,g
-12.419708303174643,6.309589271142609,-1.028079157299866,1.0202970756623646,-1.1473283700477968,-2.469573674613673,8.217037137604043,5.737498348824607,g
-12.516728822288467,5.651172696397528,-1.2220786085511341,0.7696503944002511,-1.4557874101941555,-3.736693871099584,6.173281534115458,5.828067945149383,g
-12.555596891454153,4.784644676237322,-1.3605488571503377,0.6693759835938512,-1.7219708463565986,-5.0015510313717915,4.468510558030649,5.973848039459662,g
-12.497985510282291,3.9140017216790497,-1.354303368800858,0.7022335500589902,-1.8469404327524699,-6.282289886166343,3.1712904721288533,5.990649197280079,g
-12.394834522921064,3.2119717383539794,-1.2596662843626887,0.7570733755773066,-1.857228410160062,-7.581209187596509,1.6301705579332615,5.784506372388689,g
-12.327124518974582,2.743388669059459,-1.2112747815216713,0.7302762098666719,-1.8576042925068428,-8.819344501026183,-0.828018311677617,5.400800588634567,g
-12.323817998977544,2.4551719635174107,-1.2951839637989582,0.6094582510178072,-1.9274547805389246,-9.854168033769541,-4.101903101891162,4.9699936155073,g
-12.326879420309618,2.2376855225997523,-1.463666472029959,0.4799262170963575,-2.037972848363858,-10.579710369409936,-7.246251149898629,4.60809957485707,g
-12.227475783263843,2.0193321971804323,-1.5503214731471027,0.46495351833231713,-2.0453275337244996,-11.0122374565647,-9.25276308161168,4.352916442357083,g
-11.935207130650795,1.8283808682929379,-1.3698570440409221,0.6559910855602645,-1.769364440707918,-11.268732424978637,-9.892103281362637,4.176835658221874,g
-11.421064330188432,1.7735019725199976,-0.8306994479814742,1.0797251138621735,-1.1108777719205427,-11.460788888114283,-9.774428585734528,4.05147958205568,g
-10.705459244574689,1.9576216537378244,0.02139120454815502,1.7146744624243984,-0.11899639056056883,-11.615182908861605,-9.65742203409948,4.004231074354715,g
-9.814966257407846,2.3928045396485493,1.0555227347474148,2.5340649700225493,1.0476938875412718,-11.69080484399642,-9.76937183485267,4.12273458746183,g
-8.761591217222684,2.9754805001804705,2.143007520426456,3.5254883903794934,2.2217141429684046,-11.655929204798628,-9.7504815942476,4.505014538523872,g
-7.573581968990363,3.5303356040605296,3.191593089870584,4.653450274569097,3.2872390251063117,-11.544936172496673,-9.133442811675188,5.187150651993929,g
-6.342681262668195,3.891198822615575,4.111398864819774,5.797691672799528,4.161493429397125,-11.450747503432869,-7.8591173423313005,6.093272803094807,g
-5.220270082312295,3.974581153316713,4.781192614772053,6.7489147248119155,4.754879787453629,-11.46567175405454,-6.386674086244709,7.040167685734533,g
-4.343964651200687,3.804487850675167,5.071717222693318,7.298649283766837,4.973052829848735,-11.619058468770454,-5.3223429141373755,7.7959159657987716,g
-3.7591059099906685,3.4706273945456916,4.901888171718609,7.358121090362815,4.752604247668694,-11.865315361066802,-4.925757416832568,8.16013228850109,g
-3.4178815657163604,3.0476446169751066,4.2652000658045335,6.999916030676263,4.083492142402828,-12.135716637943622,-5.0069428286886914,8.025650485639828,g
-3.265448927685356,2.5336124367289705,3.2030591896420786,6.384304472556793,2.998083803935926,-12.401776417358544,-5.319490766932615,7.3982262602504365,g
-3.3333636062352867,1.846801402574064,1.7554932295975145,5.63413942728665,1.5402398027778372,-12.682595576733151,-5.950577369967215,6.373785629264571,g
