Fz,FC1,FC2,C3,Cz,C4,CPz,Pz,Inst
-8.030527168801232,-6.005118795428433,-2.5845042426257514,-0.4847871663444902,-0.9432552744006111,-4.68801221591882,6.7804685397180675,2.995222527071251,g
-7.153906674797388,-5.147068850784224,-1.173582242476592,1.2206596932708578,0.9420291129440784,-2.328849037797459,8.96084310323724,5.378477326270619,g
-6.625451429334151,-5.0425561611755585,-0.4692433956347341,2.2448657229166926,4.960690413156061,-0.05893091329600129,10.002304229794689,6.52667361814684,g
-6.469451453756316,-5.748119743041173,-0.4329339057757717,2.52803971775099,7.264695357071929,2.0393801182068256,9.915239303323368,6.3159972599678085,g
-6.554758578597349,-6.815928399771541,-0.8476013271952217,2.1464753005130963,7.7645206007854615,4.122958632572711,9.019451345485976,4.861909689558528,g
-6.695190833123644,-7.7067308397030505,-1.4475308081385136,1.2740158988053372,7.154822477233362,6.436669139039433,7.778630499540365,2.5254201087261983,g
-6.743981568709449,-8.062145606091564,-2.029374627560901,0.10759068107170151,6.257004125387138,9.117968391745036,6.588299364915846,1.3394948587210764,g
-6.625534796087903,-7.681794285579732,-2.487874074534838,-1.202316407396778,5.704442088274147,9.58826256841313,5.654351858821177,0.26624151051003886,g
-6.323274998039301,-6.599695939083306,-2.8144175349267906,-2.574750787354533,5.78189348327574,9.802466511257425,4.990350365069739,-0.6273526142620105,g
-5.857749976096779,-5.250724711764926,-3.0686996253119885,-3.959591323178298,6.092541923514807,9.694371632290522,4.495322067757923,-1.389266974671047,g
-5.2706598962237905,-4.266939140496653,-3.305137152447736,-5.272014552707185,5.61738340185091,11.350753709640195,4.069265746742854,-3.4807875599251816,g
-4.622189654906161,-3.967351254007574,-3.5073544564864862,-6.364388435786896,3.617209970391143,11.933442288061086,3.7022178460363704,-5.12505622319527,g
-3.991841949508769,-4.207977179248512,-3.6132150172593365,-7.065274465832393,0.4855594930640805,11.402428346156508,3.4605107590774873,-6.104564563508308,g
-3.4430975939359123,-4.756557446025644,-3.5913851555235063,-7.2443227360499,-2.574557037185899,9.835788140546244,3.378406405586695,-6.230183381746852,g
-2.934620729779953,-5.551426833040223,-3.4400934471179516,-6.83723661048113,-4.628277770783841,7.3892991225230755,3.377086736333525,-5.474616855961482,g
-2.2509332204120027,-6.499311354418869,-3.0979830822751806,-5.821372150887308,-5.503506974781812,4.320323615673183,3.307203009868958,-4.013288192221208,g
-1.067638901112478,-7.308375931711019,-2.416787032575462,-4.202188413057003,-5.448293191871834,0.9803614103185936,3.059490072627485,-2.1267872108731556,g
0.8383526238047899,-7.736512408051583,-1.2812288450278762,-2.0617054453309858,-4.80337677103083,0.21684960007046455,2.6189074428365977,-0.06564034655419633,g
3.385330673917649,-7.832445191358913,0.2456307382776485,0.36788697669309844,-3.9848591705563097,0.032395787715247114,2.0379244078893803,1.9953425365271862,g
3.7893050742252576,-7.747318192553171,1.9219406741412335,2.709390275920783,-3.274700703550505,0.26449414107917446,1.4110061444663562,3.9203321570819822,g
4.081411966698401,-7.456131366224274,3.479564255384125,4.583760473764393,-2.4587457982302077,-1.3160460884903376,0.8973130658697933,5.601429883053773,g
6.064031526694203,-6.835265917408405,4.793318130773038,5.815793469626446,-1.0053012981906375,-1.7474200318409643,0.7383162858936514,7.007917608846833,g
7.534602156422882,-5.866865667016532,5.9347159363377,6.527705025254356,1.2641549152638134,-0.699585531778926,1.1961275275562329,8.206936936182316,g
8.737299026550007,-4.59930394204106,7.0556040099424635,7.000805078948065,3.944323181414063,1.898599273551299,2.4051574806213645,9.281211793957613,g
9.795344623467102,-3.089026997031973,8.15302600947459,7.383409958048128,6.512682584293636,3.3016552922192828,4.212140554069893,10.19789391462317,g
10.484677689845176,-1.6142422847857456,8.907256275258776,7.4979596698362885,8.656830707920141,4.919220916237892,6.137737676545496,10.75642603175006,g
10.353153101920949,-0.7659713801525856,8.818473612870655,6.960803806859633,10.063878995171729,8.406856667564188,7.572905137911739,10.690904054383262,g
7.103056779245746,-1.8623770777842001,5.6511808277280995,3.5809272305550848,9.652563433110327,12.168630959903128,8.049925335393583,8.54831758134425,g
7.38387253295313,-2.5216833512106787,3.692894987060085,1.7309781178804933,8.605509847969207,13.197793783016303,7.835103622174398,7.177066515071163,g
8.187566359412221,-2.193562008407626,2.5085275240726395,0.708781044348103,7.911662823889058,14.356371309059302,8.040718218268655,6.255344175049163,g
8.187566359412221,-2.1935620084076257,2.5085275240726395,0.7087810443481029,7.911662823889058,14.356371309059302,8.040718218268655,6.255344175049163,g
7.650598726560206,-0.8310934983326532,2.323120348905243,0.7137864821420095,7.529829548251712,15.629143781328414,8.715593008483177,5.911419259053693,g
7.659367166219086,1.1127655691243554,2.7672905517059436,1.3372459655268027,6.904869344143243,16.563422140306592,9.419751132049097,5.848160005341823,g
7.636116638088339,3.108143297391955,3.2546390084943093,1.9244484713395624,5.701158606163614,16.703382849579654,9.634175336383347,5.640974244020649,g
7.303478506085798,4.785698274556798,3.467294605659135,2.1030659933342233,4.094753638773993,18.331482189137553,9.216042717832433,5.136838510372139,g
6.919852223759842,6.0837243309018065,3.5795234135011205,2.0429012815655745,2.561585304048878,19.54864133659687,8.527081653210098,4.6026108750595505,g
7.056359891449754,7.289944945795962,4.07106430801203,2.268770381373116,1.6840143996671202,18.21907267081638,8.169106127091927,4.538536523987799,g
8.125692768803479,8.715759930981879,5.293268541881064,3.227233332293796,1.9452659404572603,17.00453215737715,8.56319422118642,5.3579478790500845,g
10.05556383750873,10.207717019992078,7.145292340323145,4.965318674858655,3.2804050524067323,15.732090139870664,9.688652610086063,5.492470766945619,g
9.786458666882233,11.171285293313014,9.120880813400971,5.3563015468531034,4.906283220424371,14.070911584331018,11.145300831889164,5.707944474663714,g
9.025306797167639,11.190093164546056,10.65246348448176,5.367453993379595,6.01899306452342,11.848471575101632,10.689213240927348,5.687433890899618,g
7.880207231481563,10.435621564359234,11.431623382595305,4.957794051210068,6.691632269443792,9.190392878548483,9.790022849515456,5.320925090858607,g
6.732273252048648,9.355642321946421,11.472435638900667,4.358943229355272,7.7421708246342815,6.404987886140994,10.171444035415616,4.744361135059647,g
7.3846153159749095,8.174148005062602,10.963131361926724,4.783530454692165,9.678593536311107,3.7850703787840763,10.181592720205666,4.171646678170733,g
7.793417410388225,6.859643049810193,10.090314008836677,4.741276810297194,12.077601577102376,1.5217207954079564,9.926003335032615,4.5342332475924945,g
7.851666937946865,5.371035156532956,8.940883791493125,4.253015296667888,13.995992385796091,-0.26060706218557145,9.447892614969557,4.261326704323834,g
7.282520940269831,3.6957558441784775,7.487105242933373,3.253562447214395,14.632491672187403,-1.4686589223320383,8.72356480497538,3.418131443798779,g
5.80339471422502,1.790073603167066,5.6492771548216165,1.649914154998056,13.590304346460204,-2.0674790607608804,7.67714383541424,1.9831598595913422,g
3.3137213939040757,-0.2611438034053496,3.4146592389522774,-0.5948527187276736,11.010786847196353,-2.120386745958158,6.231511521023532,1.5254394215357137,g
2.5694296916895976,-2.1027341730864095,0.9316516387111131,-1.6132516398020929,7.707741718604905,-1.778722819896353,4.396733978311308,0.9736422426112912,g
1.766482089976932,-3.3528677362063135,-1.4943768006615474,-2.6072381397035,4.795218275480347,-1.2156450876915146,4.088945755706232,0.33281416625107296,g
1.114386368289225,-3.9279276634856557,-3.4794894251204633,-3.4852996793157542,2.8273514898718863,-0.537131957180984,3.8191005535905544,-0.3367438269339386,g
0.8613621721823377,-3.9218660188363508,-4.646703548910415,-4.116507562611357,1.4433404159760912,0.2788093573201203,2.124808507323039,-0.9216207655086432,g
-0.2061585508298073,-3.253429767348377,-4.714815454727539,-5.253546539859466,0.016699834572908044,1.3578252263559598,0.9933775564484009,-1.2722009119240387,g
0.1423491284990618,-1.7021943606175927,-3.608503710123631,-5.140506700112703,-1.5718773058857263,2.816987955517688,0.541925734253381,-2.072224575212042,g
1.660072311182369,0.7320540202041895,-1.5203921821725088,-3.8968872955363567,-2.9346920117856237,4.65919241321763,0.7739866801110438,-1.7420966290329638,g
3.9080862971816073,3.775446904607064,1.1772350459852294,-1.8691771401467427,-3.587937132754456,6.778932453422064,1.619951207555319,-0.5692236308986308,g
4.351070900284172,5.028733789518274,2.251758186556147,0.5426770690683304,-3.085328689414438,9.061327118929542,2.99659970024031,1.1179847465008574,g
4.982941073534685,6.273096092618474,3.275720165372418,1.5677524552076405,-1.0931972424364103,9.144969446273654,3.2124523911306815,1.5931762880171765,g
5.775092621772666,7.318837623584942,4.226133951004749,2.6162627300854338,2.202873210465614,9.200045616616155,3.521043896269261,2.1629283598538604,g
6.624478969490087,7.941794760373585,5.062106585796083,3.6449967843739253,5.903575138668721,9.23115142778617,3.8652052156017453,2.828268366041781,g
7.34055046313617,8.063728289245562,5.713828995426631,4.576429274208445,6.790618249117493,9.183499702601699,4.1766562495320345,3.5328054555875807,g
7.685369451141978,7.75549780071417,6.078200884143133,5.287273836317981,6.943774897458118,10.965250608040325,4.408774471171606,4.164875668827589,g
7.433712288367016,8.568650723063389,6.007297290450955,5.611716193915531,6.784241526723792,11.819145261421165,4.510330895410599,4.5744471621380125,g
6.446970627457537,7.773455208168082,6.759076602444139,6.709835235991126,6.687432205658048,11.420683142001716,5.577327502176561,6.056572777463386,g
5.999206779023207,5.455230884687053,5.793490349896674,6.370255948360104,8.526775257764472,9.697202273909149,5.595773783411362,6.408455907602425,g
4.164986136778234,2.2240719742966664,3.4847419508712916,4.784071718218714,9.600768432584179,6.871295373803074,4.571055730864403,5.68368162862393,g
3.8185245881973033,0.9612780089783926,2.3966037395799655,2.471947245882725,9.453963817480666,3.340419671206827,2.7276782240302926,4.180589867134161,g
3.4811828990540206,0.21792337526781164,1.395204490231438,1.490063549803601,7.8889706272815605,1.8314204464731993,2.0170109685457867,3.775701864077778,g
3.567070776244466,0.2315529848186822,0.8265440162385648,0.7054332010925849,5.204487109482618,0.5413378684544158,1.4272621156592131,3.363720767867631,g
4.232062578406181,1.1466308878219382,0.8314819553618072,0.28774656295276246,2.2961022726096942,-0.22808091031267247,1.1541547328483894,3.055286358871344,g
5.348298792861838,2.9442772705325773,1.3373947834881812,0.21200747426211977,2.301146706637485,-0.2637650088611501,1.2749173192738268,2.853390368521338,g
6.580752178793702,2.9402591406314187,2.0894459421462894,0.27244812038346683,2.923305218681505,-1.5688648853756963,1.7031701354621565,2.6538869632820914,g
8.173986485399517,3.3186019490927245,1.8168903974134314,-1.5178690228612897,3.003738521731722,-0.9868861663815206,1.4278442022722653,0.22479807033843074,g
7.339263492807585,5.965135109324846,1.7787169490681862,-2.6277933427219526,0.3071155496630068,0.43736669615084,1.1120183069958336,-1.404758634865807,g
7.69517692329824,9.105661347692607,2.7129749416881017,-2.882075905464788,-1.345616055903377,2.232813934991597,1.276438927799946,-2.377993505674284,g
7.695176923298239,9.105661347692607,2.712974941688101,-2.8820759054647884,-1.3456160559033767,2.232813934991597,1.276438927799946,-2.377993505674284,g
9.331356945015198,12.314532164580111,4.527552581159949,-2.1322606521380107,-1.1563965713063753,4.229830205303812,1.9111844192786898,-2.5367462080776284,g
9.601241551466543,13.016403707038005,7.00574310626205,-0.42897255038919385,0.7296847970749797,6.3405076654867205,2.968591322130225,-1.8760445185270676,g
9.468116971335789,12.956392790169161,7.496819196842656,0.29705411520662317,3.4020177674535192,8.381482075180958,4.295930934787476,-0.590586119443661,g
8.762049241422456,12.000144670663694,7.408011276440179,0.6659216663125784,5.633049494957786,9.948639641234406,5.598229899409912,0.9763814127323439,g
7.600591318143938,10.179372128128929,6.803297308038114,0.6864204053981517,6.548930913883533,10.54346252918187,6.534342364094928,2.472552026410257,g
6.312216934361048,10.19386477972763,5.942955817908508,0.5591540697567334,6.335955413347494,9.88971544266263,6.9219465311180794,3.7043585503165133,g
7.15804945863465,12.269118414312818,6.498544453423092,1.7982036984896645,6.168830056755435,8.159007866880481,6.877959972349855,4.72873014613128,g
7.905994247520047,11.772104246587142,6.992714972240696,2.9891072536130463,7.074785540610302,5.918235676683179,6.764669994536452,5.785485232666454,g
8.923466972122117,11.23591693731283,7.779433116007949,4.407503160564297,8.910152229255633,3.869760604400283,6.99616627795091,7.107577828019989,g
10.164338665058725,10.803055114419028,8.894773116084519,6.053059015472908,10.686284805294605,2.5639218685682517,7.84570777694681,8.755318891211889,g
8.850193730369558,10.696404955464093,8.137595285656975,7.626264792944218,11.735879036386327,2.2022264552360653,9.329786324975583,10.583571588301641,g
8.869150361666433,10.701689375287856,6.609360673055415,6.909290215201713,12.2328168754532,2.5987498370093367,9.021435915786451,10.347736070345672,g
8.817415814564706,10.703182373071957,6.595062938876659,6.946554732843881,12.723641024901514,3.3392299382664348,8.31054401167888,9.47322402533646,g
10.046400189403528,10.691573688104967,8.02912664158783,8.381906766932165,11.320751680221319,4.0631572398497235,7.2811338907624235,8.17709395838057,g
10.33473548643903,10.667983656722942,8.720263532586731,9.246879047114607,10.376644422154413,4.670772328410552,6.189203848698208,6.801911863596845,g
10.069386796190878,10.643963212309428,8.894173883364635,9.640402348932,11.836015958433256,5.311978980816774,6.662638960415713,6.6590099011764705,g
8.003444930938667,10.619269942169712,7.678259522162406,8.65415846965296,12.783474834398936,6.207043689267726,6.967388429573953,6.4296582107919065,g
7.112381535534913,11.02697061613465,7.216572849871963,8.245334813281733,12.605568739368257,7.450967797117376,7.221726477701628,6.292149968687159,g
7.066649421714819,9.72142047106416,7.319635639724488,8.270736089004666,11.404856138012132,8.90537868255216,7.343196269082644,6.21553532291623,g
7.221374708973407,8.365951531654309,7.538929477496469,8.363175856942002,9.97276193460487,10.223229824503342,7.098626035411003,6.011889874616985,g
7.219911317676605,6.5173883703349045,9.344443071022255,8.180809672895643,8.991015125741777,11.01974523712394,6.25939287023728,5.489996334580899,g
9.114289714246297,6.521498518452762,11.022893606798462,9.406538411755717,8.495758811264265,11.108368659221199,6.942469097135223,6.565723217069585,g
10.632555765007465,6.522297715328856,12.428759616686474,10.47877348319724,8.167609429312227,10.61950593068095,7.529507854954628,7.651510138147946,g
10.511482921020889,6.535887413557464,12.105875500192937,9.940213209725027,10.050297656992072,9.892833382966364,7.917939787772243,8.595891744724645,g
11.199000987248946,6.571163843208761,12.413754092128217,9.863967448541668,11.782737135820666,9.246143910908392,8.069594251883718,9.338173457999737,g
12.568299831538093,6.629818011828837,13.353864619489864,10.356077919363345,11.17069644936394,8.811747890949771,6.7221297294947275,8.98175872646775,g
14.17331083479979,4.6315523436991075,14.679592148626366,11.344329886302567,10.833167083738802,8.506244861605989,5.943128642579971,9.222287468249329,g
15.498666200327156,2.699224180300991,16.028844557604845,10.961982566552368,11.374982101557247,8.078196699599905,5.70732571361284,10.004630593645187,g
16.17722747680464,2.774069556403289,14.993999023238448,10.227031668952176,12.92027724220562,7.210777822438203,5.830927543826805,9.583603867221528,g
16.094090600315162,2.8270047981390287,13.426549779297071,9.143978866073345,14.680041972312935,5.700122426559487,6.02957940940633,8.921960338975632,g
17.499549257574216,2.8439023598702518,13.258316287486133,7.870557483618501,15.58424991023271,3.644207643096203,6.106101586648251,7.9834640162762724,g
16.401106937334173,4.7805465699052325,12.71739241609797,7.778136750837341,15.274743644076693,1.4882043295919478,6.130640246132646,8.032531172114512,g
15.178856741933913,6.295830086764278,12.124753964885008,7.381410716801459,14.24919882597763,-0.14847193843892406,6.4220332903267145,7.8151388802295045,g
13.955084517888896,7.671036822088437,11.69757375326163,6.9538969460567674,13.191442025190366,-0.7656973738772124,7.303983491806403,7.727240403424739,g
12.651661849373964,9.029899700419426,11.400223561609867,6.579212132097512,12.439498412246255,-0.22178409738339644,7.132956069859148,7.92358229856152,g
11.008329085155925,10.354550715495568,10.92507098067335,6.021430029251971,11.917384938430837,1.2114425072667117,7.155008373976299,8.117677822507813,g
8.719914418550752,11.525691709684406,9.854110261429991,4.856727271478098,11.186031767980621,3.021834549241981,8.544045716724693,7.753781527952474,g
5.667890058913964,12.435222826643656,7.97172161398518,4.476562206063651,9.650149485733104,4.781463697890979,9.077393621172439,6.430797474106083,g
2.103721072345725,13.194482430433322,7.566088287316058,3.748851738039884,7.148662485438085,6.396845954374452,8.714018257679433,5.761097533123,g
-1.3979158106269298,14.176619584620349,7.172975482014158,2.966061213798988,4.361932242069846,8.047855361628613,7.844492705837689,4.994192756158936,g
-4.240400963306112,15.715779235119498,5.449013002292142,2.4316698037566,2.235968580144018,9.833168257826046,6.91779184781642,4.49844161721836,g
-6.144999985555146,15.807540666831017,4.545111295609804,1.079678058789101,0.9121669477889105,11.45395722252998,6.0308513145098654,3.2130696488264787,g
-7.894206737964401,14.864438261496858,3.7433500169496163,-0.037800771003673225,-2.550387796225465,11.699979279897615,3.0624311216651066,1.5245897207457468,g
-8.286649441306977,15.279068640114676,3.199304558736877,-0.509520686030313,-5.265155475520666,9.645616081489422,2.2698582865435415,0.40927603785277633,g
-8.34322028599358,15.68501150022559,2.724654952311244,-0.8601303031292833,-7.67078932032769,6.558664981478562,1.310583494676486,-0.6731820287385953,g
-8.34322028599358,15.68501150022559,2.7246549523112438,-0.8601303031292831,-7.67078932032769,6.55866498147856,1.3105834946764858,-0.6731820287385953,g
-7.810837552671489,16.398680694730125,2.731393689491212,-0.7175966978157818,-8.942194018616455,3.153487733200459,-1.0095202387947488,-1.2262009790295478,g
-6.547274007815004,15.422531591938181,3.4431637055571933,0.1312129921475152,-8.810382003926957,-0.02338379704245863,-2.6166866864639635,-1.0200567830732357,g
-4.704564904345247,14.624255670107555,4.679909660431088,1.515542337475973,-7.64277292464075,-2.8316825246590724,-3.61652010216428,-0.30464898830192677,g
-2.660256319013078,13.636347370600788,5.993461735621407,3.0022306569340125,-6.300888202265495,-5.414220219347799,-4.372823907137795,0.404911295246308,g
-0.7710309671822072,12.129592344292174,7.041897183109491,4.225718000281153,-5.604141455853366,-7.846998058785454,-5.123496529972941,0.7386273657086683,g
0.8216552905216048,10.142717120983862,7.8460692316058385,5.116381471825432,-5.591983789025494,-9.908209224513458,-5.748338259435117,0.7185596834973318,g
2.17274328946744,10.19219855621279,8.67636658164582,5.843172611472166,-5.458961981266932,-11.192641355197058,-5.901581611620982,0.6589521913663997,g
3.3565944448342884,8.211870839900946,9.702539352154691,6.563576119380189,-4.449493823504942,-11.44167270485806,-5.37074661211323,0.8305615422807829,g
4.323401641255053,6.390004475599229,10.772134553077834,7.232577471418859,-2.6529274664171494,-10.751323809153996,-4.301774583615279,1.1960322919514834,g
4.914214958914313,6.347048036584324,11.510195424852665,7.63676553407299,-0.7259863907086095,-9.477304692721173,-3.0776000386465485,1.4631698056486557,g
4.991169317960482,5.594060776606679,11.599136199791907,7.597120350626358,0.8990643045471923,-7.963557798701531,-1.992334215336578,1.4022280048542681,g
4.5440467898702455,6.393354528582288,10.975855212174832,7.1340949338133814,2.2070956281118863,-6.348548917567879,-1.0466330194433264,1.0992825180282426,g
3.677481728796748,6.830668474224739,9.815114052924669,6.437546523442785,3.2450784873325285,-4.590583125044491,-0.04159309605765236,0.8758664727642543,g
2.504624591222911,6.956866653210514,8.351857926710904,5.680594255511225,4.0340347767491505,-2.6619282689186767,1.1411978773552796,0.95902636740472,g
1.0677723324339865,6.978534276549416,6.70457041295729,4.873991377528047,4.769795608468765,-0.7290436411603493,2.3419903284574,1.246502452077184,g
-0.6141605033392237,7.209928585642733,4.864928306259932,3.915046924557565,5.6832871338690065,0.865257492852462,3.1929679196456497,1.3966137635889275,g
-2.4114881803156405,7.914168361001154,2.873865277456043,2.7757827839161564,6.646969832552067,1.830893886307488,3.4003919020574616,1.1366890442303277,g
-4.02900325004205,9.264459112455391,0.986119259579071,1.6190295723886727,7.224821737427765,2.150084055079263,2.9758181392179632,0.492486337019025,g
-5.141494835128179,11.347573328405701,-0.4050582645367934,0.7070569467002641,7.123685804664788,2.0400779121557466,2.1826349499231403,-0.25387569085146827,g
-5.61683787386273,9.65023523076604,-1.0422698882093386,0.19788919126865473,6.310642861448747,1.6883242054349874,1.2492450059358986,-0.8143593880186728,g
-5.595021278923729,8.548541161077248,-0.9742284139122429,0.05084879245629679,4.7625426615516355,1.0614972702377234,0.1624369235002253,-1.1143274297464,g
-5.3226669621369735,7.878175804385213,-0.4240770935515516,0.1431340136894314,2.562884103203987,0.004510544386868531,-1.2243489836852466,-1.2794888900427146,g
-4.897413960511648,7.569200769148793,0.4891755108866825,0.4715453307221099,0.33982566316036183,-1.493844305269968,-2.890541709063676,-1.4151379209385906,g
-4.166925623072246,7.5624177458129465,1.872465917998975,1.2269778163360567,-0.8548616560244536,-3.159244120638763,-4.496384026896743,-1.4151350603931914,g
-2.8703452567885956,7.646098764190457,3.9227853636946115,2.6607944023862355,-0.3914591918889613,-4.539539722769918,-5.549549927668429,-1.0099293296957934,g
-0.8952124230517782,7.504035334403767,4.703743089014601,2.949530225536525,1.4295131845761628,-5.250273963396724,-5.729270142191529,-0.007546519666580598,g
1.553421300212041,6.874348938167069,5.4722819657884045,3.3822829402419536,1.1141669040509306,-5.180424240939123,-5.083090669272188,1.516760095395858,g
3.998096473726963,5.588265838575668,6.019453688253213,3.82403937604818,0.8653825481440979,-4.53766483780369,-3.955464009577093,3.2533649155920266,g
5.929694912901459,3.5666368308564755,6.167249999864545,4.1363429363618325,3.0462965550401746,-3.690898388676222,-2.7177841966222847,4.857304209319826,g
7.0843791474939195,3.5430016670535025,5.892864899314261,4.2659355943859865,4.939160262481174,-2.896180062266116,-1.4993211708754537,6.133580400988857,g
7.544929014834698,3.433620963945349,6.647728063666132,5.464952162941161,6.820465101283564,-2.1287086849700723,-0.13119169694700492,7.081757104393229,g
7.574163887862677,4.908344836268381,6.904786137593085,6.130305923972894,9.193334010433936,-1.1912679570287439,1.627859720185922,7.791790939089578,g
7.319342098669137,5.910443122268946,6.828631374074595,6.299742537529646,12.124248940941504,0.0018454250225744318,3.76871971239065,8.282696479400045,g
6.64824803230362,6.41429590244825,6.26454692124293,5.844814518520972,12.579889711322974,1.2562847734134948,5.922363275445235,8.426709057817085,g
5.253310446482938,6.3600561521873065,4.89776115716915,4.574137978719477,11.69729827116177,2.2035533704216634,7.584125308329499,8.047406455474322,g
2.9232767755166447,5.835998864240354,4.545837191196092,4.34669959396434,11.434446750935574,2.563152878212741,8.466306348346968,7.11721924767154,g
-0.2322803965096103,5.041558347155321,3.8815368682141362,3.8895383861413655,12.904645631494088,2.3425916494332126,8.672880110343689,5.863595595781019,g
-3.753577063589083,4.187853170458309,3.1142393255076626,3.3661780784424797,14.294278584130243,1.8586611560582562,8.587836810098231,4.6753490219390414,g
-7.007743940692711,3.522918880202515,2.519995126196226,2.988217191089483,13.685675081561138,1.5778621135897524,8.600607950750785,3.893920819088742,g
-9.465752517238784,3.3311377456135802,2.321682838260049,2.9166986235873242,14.0038865762802,1.8491277836723286,8.85827598203604,3.65477551767962,g
-10.90463474488222,3.7605841715565687,1.284354228272028,1.970519360355702,14.93688529837184,2.6911038704653216,9.184289658060553,3.8593239087105053,g
-11.141226716309472,3.0180270598094077,1.2037170757333508,1.8407321320285153,15.52313695863621,4.839189729363582,8.665297647854926,4.5728085212035845,g
-10.239175820359428,3.6281710154882725,1.7034287066560172,2.2408576968249116,16.933958846149427,5.5958319406626105,7.522476373923278,4.659854693173449,g
-8.694014359551044,4.937501647030201,2.548404166134978,2.8690198050771345,18.577615997229323,6.1209517470848835,6.008697700459559,4.52846821879532,g
-8.694014359551044,4.937501647030201,2.5484041661349774,2.869019805077135,18.577615997229323,6.1209517470848835,6.008697700459559,4.52846821879532,g
-6.493173363474928,6.81322010641143,3.811922109549448,3.7605318536156602,18.736703892126496,6.550843956997191,4.388783582629521,4.284866330908089,g
-3.7239259280228345,8.984028145304848,5.480391178455219,4.906427659840969,19.353289919754225,6.970593252096424,2.820147917389499,4.012526664712425,g
-0.6070921828557246,11.279764624311323,7.417352528133634,6.199814346427747,19.746802972156143,7.361441981555011,1.3551541975709505,3.722113727321532,g
2.547594551143643,13.561868829454593,9.382819698206255,7.45477724540157,19.544871404993458,7.635991581246043,0.030675267835380816,3.3836511929350492,g
5.4159959685487395,15.520587277955372,11.086570351418882,8.462942441567643,18.78742490613002,7.722583269311781,-1.0679034906689546,2.96116263912436,g
7.714320345286831,16.797261680419673,12.26957741960978,9.043851504215588,17.763938809802962,7.64909152696667,-1.8133553023016813,2.4071007848086774,g
9.211942206678987,17.253172503680823,12.763293840706762,9.070387677422474,16.96723737507393,7.554118829501819,-2.100215278820823,1.6632069448835796,g
9.730039578378587,16.893323353523165,12.486311250742881,8.480927927028329,16.84594593826332,7.601170143952729,-1.9247631100734552,0.7067555378492539,g
9.18223235910496,15.604747254266357,11.42867229348644,7.29883229706075,17.26466276822439,7.882290090745137,-1.4112123171227917,-0.39538030481063224,g
7.664592624729377,13.267835664336081,9.689421252196754,5.660308317520511,17.424941571592363,8.416059211342162,-0.7285175931009809,-1.4740042726443963,g
5.513263141914697,10.14032042257618,7.5214534174219425,3.8234990697075673,16.636983603377082,9.219669593862667,0.051216916114683285,-2.2839118917638017,g
3.234791464287407,6.860196137629602,5.281642902954737,2.125272150456092,15.04610914607714,10.339777507927403,1.0082470212773706,-2.559255743312349,g
1.3173138003005966,3.9934448425935942,3.2951394968215864,0.8821814342695224,13.389355900115017,11.796958738393588,2.266954818072651,-2.113348203818269,g
0.04583331161434963,1.7610989512790653,1.7571446655419436,0.2814096384436343,12.246060035169908,13.518593546364523,3.8213913390002916,-0.9541257475768582,g
-0.5468331811202679,0.20799197074822082,0.745245736369261,0.33472218616830957,11.78464606567896,12.884663783166468,5.466812051111878,-0.9813115173816879,g
-0.5613571822776265,-0.6285992120106016,0.29547956131214104,0.9376387894031044,11.980251128224154,12.09839691042214,6.903648517174929,-1.0053550859356906,g
-0.03614029600390358,-0.7841146328604445,0.4711321001508352,0.453425697514207,12.653373119268291,11.22974844437329,7.9279934962312195,-0.8671417738391645,g
1.1692061403096594,-0.32618844201759506,1.3922049059687136,0.48895133737536317,13.414175700528778,12.421050830000139,8.564603912723328,0.8474255370678975,g
3.299527275894505,0.8832802802792429,3.195949949377822,1.1002260735961613,11.637320592751797,13.423639780103596,9.044166472971046,2.5821487712853974,g
4.348861641130677,3.1474891016212125,4.094081623470451,2.1802802554806284,9.916570368906672,14.353888566817275,9.629858670343083,4.380115713712139,g
5.8665157865773185,6.479365521537828,5.378456374537801,3.45782053340267,8.77913390281701,15.239736009505217,10.413101029773038,6.153005122228195,g
7.404291422555042,10.358824970631478,6.645007801230936,4.555324484367187,8.341859680661516,15.99258344463517,11.238002524457258,7.682904473256204,g
8.488355360171774,11.71326725784012,7.505578544693185,5.107422248303738,8.279544296596708,16.47915053314857,11.8087423816496,8.695798551206611,g
8.816749120119407,12.309592761911345,7.732246624088157,4.904525941335985,8.185582640456282,14.315501809047202,11.870983085938782,8.968913551446722,g
8.365843796626024,12.111790210794696,7.311542936549245,3.980943666997905,7.775581042733441,16.428815975229373,11.31823952093002,10.091461324492204,g
7.333297104590484,11.268200641018488,6.387840848268747,2.5721750995851194,6.821577016723396,18.095387451869463,10.185736543066497,10.6337317217354,g
7.94099524747069,11.71295669590144,6.556298479446399,3.5638194839871766,7.0372637531159565,19.126546926577912,8.595727607375391,10.41203315246259,g
7.64886747142364,11.121404277691578,5.711930958924036,3.6908412247448426,5.983390375950946,17.48583878865367,6.7061482214474735,8.224781229630874,g
6.47950100707809,9.629615489509805,3.929862227665428,3.1666816044688266,6.483462265570322,15.709025572031635,4.669686542985587,5.949756348463235,g
6.597892459165119,7.233525690302004,3.1011192466616317,2.300686535197979,6.657302301069701,13.979222915026103,2.6162993282815665,3.783845468717895,g
6.400701339975588,3.9496994747530385,1.8773704097355872,1.3755343678197272,6.5928832483651405,12.436754653737877,0.6782593528872802,1.8463608211884703,g
6.129385974304424,0.1355719571127924,0.5565514837800265,0.6140574657287534,6.320620516451042,11.206735741471665,-0.9682212402496748,0.19497264888106186,g
6.067724397302181,-1.21591656108588,-0.4831472389702295,0.19776595245508774,6.068028125682099,10.429734461550106,-2.1008908158342856,-1.1009252909066987,g
6.483284437178746,-1.8122690741402798,-0.897672870740333,0.2564909641855593,6.18362629610448,12.544369293246476,-2.5021718993940176,-1.9051775737462637,g
7.526156554188131,-1.5571846694425626,-0.5310299570875069,0.8127678383520994,6.852441282157772,10.44691991395191,-2.026646186910798,-2.0516683719386415,g
9.1584927527948,-0.5661295689480479,0.5152859718329733,1.7453530945816358,8.043072579619913,8.810936535605972,-2.355141131124965,-1.4472533680139066,g
9.192468648921416,-0.7058383105735547,0.5318673554652155,1.7703430378935536,7.8072319705519195,7.819107307301148,-2.0283571215271765,-0.14639609261862246,g
10.025291822227876,0.3710315671828849,1.4017303804256112,2.5167877710055593,8.565197254093526,7.423326025992319,0.492303212085757,1.661116147844955,g
11.439250271320862,2.3891708335196356,2.867865507923075,3.737471094527919,9.944843069239298,7.355421605422673,3.0850295159442913,3.732789846812298,g
13.362465474204061,5.187854732274504,4.885549303254786,5.294286711220794,11.56549511400792,9.216809849890398,5.513826570025171,5.869929898915229,g
13.53836204303181,8.821391395940449,7.594492548280681,7.209676843378659,13.508418189239517,10.607426464711839,7.700956525088602,7.965294365552866,g
13.774241677717608,10.55513255737043,8.868558323225981,7.828094048988289,13.666350528522935,11.639227726976312,9.61608531870481,9.961704728575262,g
13.333967646986967,12.515192767290944,10.23306841453621,7.9828596426935645,13.639829823412388,10.25045752594435,11.993007777817757,9.493638883407566,g
12.255691094294376,12.26001427829912,9.828168320690692,7.37176965505283,12.937477543798892,10.231784254138606,11.964676291624459,8.525897411911064,g
10.604880081756427,11.284721156605531,8.75954465049151,6.419825410068976,11.750202857098028,12.339299641889287,12.69243954856069,8.591320847241997,g
10.604880081756429,11.284721156605531,8.75954465049151,6.4198254100689764,11.750202857098028,12.339299641889287,12.692439548560689,8.591320847241995,g
8.591851299277566,9.798199238885024,7.3318581876727835,5.34609000033598,10.162119081515378,14.045105366892974,12.808948533808683,8.085385854104938,g
8.137642585772962,9.861652063373736,6.963166840104726,5.160296792993082,10.046297911000064,15.507899193207132,10.956639910033186,7.27571237986696,g
7.291829997318915,9.505590753253937,6.336070431098905,4.6130027777871065,9.247981029362698,17.066274530983378,9.42048204044453,6.403950797311626,g
6.536568110493677,9.090088881970706,5.83165088194654,3.960859069428929,8.276231167654144,17.040523568261126,8.450817786925208,5.539963932248371,g
8.227773636652657,8.288858240677884,5.2756496920607265,3.1437077154110455,7.190494353367747,17.52210507958125,7.89716767342729,4.536021497368094,g
10.214474459522146,9.028538047296756,6.270131169711513,3.556316912087503,7.921247969954308,17.90015550491243,7.346554040050518,3.1260276198401185,g
12.131170518536454,8.90364497874052,6.87209792254657,3.83114348342522,8.257204789560863,17.63598514701284,6.45486232489925,2.891498682045631,g
13.627004765779049,7.919089406031873,6.806525384124656,3.8040354760424364,8.292230397584522,19.00180398699009,5.220794688858824,2.413445701507675,g
14.570399363737039,6.371208147477421,6.1144507690023016,3.502774041814919,8.311974197623163,19.96093839819506,4.002419478796398,1.8437648434256864,g
15.081714340945727,4.688923737368272,5.122153677271158,3.1336959168164222,8.476333433107701,18.663793308775922,3.277687487342031,0.19131133042786033,g
15.419171222695462,3.3389858159772117,4.24726240552226,2.9419102908354686,8.803548004277417,17.96934563422435,3.319457606020767,-0.48107408375976296,g
14.14813600275004,0.8629755056511972,2.6772566355615903,2.236688669067109,7.568482386337871,17.897472119998344,3.9975171346713685,-0.253918684407555,g
13.463596378380748,-0.5120053972722829,1.9084987205972155,2.261289287244686,7.142975413076447,18.069967792350624,4.842373912635534,0.4774778741809359,g
12.792466354587065,-1.4012637406960347,1.2750319012351645,2.4551541363580514,7.016066624550545,18.028053330444298,5.338713409800176,1.2645388378634366,g
11.809028462804207,-2.0305297873947423,0.4462059200464522,2.475485787172339,6.786370766341022,17.57645199661753,5.240932934208418,1.859778364256643,g
10.635495454185115,-2.113084029498086,-0.36379821710554056,2.386955171728599,6.595841719808954,16.868337431728182,4.673410758836925,2.312971259282014,g
9.713144565650953,-1.3607538667368613,-0.6292456156458677,2.5412240864458777,6.781439365377376,16.20867340941636,3.963472392987794,2.8539851801297984,g
9.500186900780124,0.1585882232586071,0.07646654737040173,3.2775383983625246,7.3161434813923965,15.805968099142465,3.387211377820905,3.660587558307236,g
10.226325427265138,2.200803884368232,1.8179042318460303,4.681588508481504,7.956082352171404,15.67792704364621,3.0413603148706456,4.709637104596766,g
9.68777607011604,4.560931162746976,4.292829283101579,6.550008626251644,8.764086453405225,15.710083067388291,2.879766619214759,5.818587774157467,g
9.372478915755888,6.957164781055477,7.005303948776364,6.790261257956961,10.04121137617123,15.753832706992341,2.8054653241059877,6.782046311981614,g
9.046348348942114,8.957449367940134,7.569239521741283,6.765591452584547,9.531253672556986,15.701460165901977,2.735651087298653,7.449305692468593,g
8.58963921174494,10.248349133318822,7.743820887654988,6.501012509799436,8.845217555647315,15.538514986811867,2.6445144494962114,7.727877291954999,g
7.985778991012175,10.856681325255952,9.182701058286156,7.295509662609652,8.081921750827556,15.36149399651942,2.589192685629887,7.597562774921611,g
9.050204464175987,10.970340019029079,10.107708862711748,7.614498117337481,9.4314411664727,15.33407292791479,2.6798635449593027,7.136676826365258,g
9.451727366448148,10.691522268311676,10.509369933141167,7.515851872115645,10.47143240472502,15.591948274224857,2.9837333880396892,6.474798810776933,g
9.160517143793225,10.092470177271228,10.275522314557726,6.994588849749826,10.961874232119436,16.143497049597638,3.4296286579203246,5.6714448571468905,g
8.138249847052473,9.297416431247875,9.23206322403746,5.9616440820277194,10.80419259722029,16.813792096724747,3.7921421249457845,4.645350359727101,g
6.372775619538663,8.267672024279477,7.236899846054473,4.318614315449613,10.111051940285403,17.2707408100776,3.7712588819345165,3.237927092710757,g
6.086993788072308,6.641385203694631,4.294651987780749,2.077072943456207,8.83606279010979,17.149982198291262,3.1256565713381415,1.3496864660043086,g
5.728375708102305,4.055777753207982,0.6427398313829904,1.1637500857325862,6.68411315646331,16.22428553625892,1.7946816852431549,-0.9585561946868133,g
5.47020985215196,0.6000967978776423,-1.349204997445215,0.21399685933775903,5.826665614886468,14.500705081965759,-0.06183280211068416,-3.4442707432111335,g
5.399717791606884,-3.213987997743869,-3.1957764520768808,-0.6347502134390572,4.654958494614537,12.183696968314841,-2.140614511157971,-5.742338318701126,g
5.5374863509224195,-6.826827920649704,-6.18184018817552,-2.4433737458819573,3.228262102729739,9.573323334670699,-4.1338346508199875,-7.495147464864985,g
4.1211942648012165,-9.76902207896689,-8.20550661233291,-3.4704146957815154,-0.5147987261569356,6.997847076231238,-5.821537736233367,-8.493897430159425,g
3.5602009040023823,-11.568437736818408,-9.093777768630527,-3.6923066455859805,-4.098679314424207,4.775067619482971,-7.073403915201308,-8.728768898270058,g
3.907546626376108,-11.877468166790973,-8.783532015030177,-3.199914415901106,-7.063183284854441,3.138902096863539,-7.8146033617518125,-8.314531794090048,g
5.104529134421136,-10.740542843415083,-7.344363172649916,-2.138617864709899,-8.852383275611441,2.1583463740546067,-8.00854143101459,-7.376285914818378,g
6.988317891017712,-8.477599724672396,-4.948737288509152,-0.6444389447444822,-9.238230903344103,1.756591528601366,-7.638420863721153,-5.990471795561606,g
9.352083147981983,-7.536920402069271,-1.7886382843089783,1.1945767030619803,-8.260940023005189,1.8505902402918628,-6.669192196897609,-4.188304643992739,g
9.71254009337929,-5.936848508555693,0.06893958060159448,3.3261419737337325,-5.995931484282951,2.482416035392731,-5.0403666992214715,-1.9902499512973186,g
9.977344691049431,-3.6948448100282283,2.0758954387118376,5.669000568957263,-5.119838933836193,3.8041117761995773,-2.7408428170667545,0.5263843392983387,g
9.942056507641839,1.5853829724472892,5.486399686737076,8.571233165998956,-0.8856835420493276,8.628934659592954,3.0701419565903523,5.45635915758851,g
11.533892585811092,3.853569731066586,6.470519673849523,9.925466920206947,1.574114050062891,11.459592123691307,5.770182573252782,7.040642316740727,g
12.18997951681761,5.276494706386659,8.2596510484568,10.297293381905789,3.828482309680242,13.72674711852882,7.791356668397486,7.615040186744025,g
12.189979516817608,5.276494706386659,8.2596510484568,10.297293381905789,3.828482309680241,13.72674711852882,7.791356668397488,7.615040186744025,g
11.889686149848378,7.400754505708977,8.737026592631647,9.667736511970256,6.1383255810363835,14.937947529079699,8.987313687695499,7.196345525491606,g
10.849248998274062,7.821262618115173,8.14612220637421,8.288951384008268,8.285732477186148,15.06451527713809,9.489600100382265,6.046130891453219,g
9.36957686025747,7.015854720375597,6.916271394870168,6.52055672996624,9.829136148884569,14.494920661689159,9.557669799574382,4.489242158008257,g
7.632184615668132,7.719410889641411,5.381925757168034,4.6265232207166145,10.345834659439001,13.68703982143388,9.347425664305842,2.7422229746603852,g
7.930300338196053,8.136016795566025,5.531996206090504,2.7065779545669466,9.491993079459574,12.83818603811908,8.80998956022441,0.8749316479246694,g
8.141529921018764,8.241992524329854,5.6801627509796875,0.8015659935148418,9.680968847810385,11.84298427974188,7.8211767349037205,-1.0746776951089667,g
8.241006965466116,8.118227965040706,5.84422340750199,0.5536887263810609,9.245480396309475,10.493729606462242,6.395012323203853,-2.9450849488321516,g
8.23737735966227,7.855607243525329,6.020895153852646,-0.8321644317894228,6.895987478327032,8.687968394098773,4.750302421002805,-4.4251480496785,g
6.20566508132633,7.37504364228405,6.167800398524156,-1.6107269550101795,5.463368375955481,6.507927723042248,3.1884368838280026,-5.211934680912215,g
4.766745850932248,6.517654015005,4.740010817702505,-1.6869459693495998,4.469163390585338,4.201626959359703,1.9499018843493787,-5.202087262911752,g
3.994661225999933,3.4193433333247034,3.8561324166589337,-1.1206096358611086,3.2575103585862992,2.1162199518063023,1.185360866299425,-4.517872428224715,g
3.8690507167423838,0.777527673812731,3.559898051351096,-0.044922762513215274,1.785959414373318,0.5872085875994266,0.9944841654953305,-3.359956170397447,g
4.326725805889684,-1.2560782722137631,3.841467221636003,1.4153236620514016,0.5174044143800687,-0.1907715260067749,1.4201792665277968,-1.869781734406989,g
5.279102457335048,-2.684602886187071,4.627593761694188,3.1531029059621782,-0.11685814179698877,-0.24260922671154547,2.387159862828919,-0.13488752995720432,g
6.6025647563874,-3.489871492934994,5.777795105765076,5.033981684520398,0.11119299875340313,0.19780129296687315,3.6619912287319445,1.7194353447948807,g
8.1217291435575,-3.6574251749626447,7.082536963821222,6.859717108498325,1.2520916577317323,0.7689990590232315,4.886700953125585,3.4760308436732794,g
9.601412797203636,-3.377046853366707,8.283109038150613,8.378519824512397,2.9803295850824343,1.1079778483752882,5.676585270933906,4.845391653675995,g
10.758099913319876,-2.9621999234911263,9.13703988607086,9.33582375415524,4.541344815930801,0.988254341955412,5.740333933623128,5.5278504848882,g
11.290884448258996,-2.5284263995224188,9.48285744112602,9.536380275414123,5.258518967796816,0.38958774146900993,4.95651188234182,5.29760627721303,g
10.925800631224753,-1.985036540836235,9.22901910850305,8.88621256616355,5.017009323046208,-0.5742153461277554,3.3440018278242767,4.076852215866715,g
9.477706847552762,-1.3863720144344616,8.293910383676877,7.398241479499147,4.0041787466569785,-1.8133042830230799,3.0037170685640984,3.549882512653592,g
6.932271942840363,-1.0221772180945592,6.612798827173516,5.174085743950377,2.167117794901463,-3.3421588452098083,2.404452919587334,2.9021319967532753,g
5.662436977163298,-1.0491411114094127,4.238684044567302,4.149348956295834,1.7705782685201115,-5.203223527691662,1.4063160941829866,2.098623146555859,g
1.795645785231148,-1.2722999459377395,1.4137106851302645,2.8433561813319086,0.6728840540239476,-7.334498146479058,0.013283523034958122,1.100884241452686,g
-2.007586067881699,-1.439714414046512,-1.4917581196033118,1.3009008351005273,-0.9236293053553141,-9.52026391307086,-1.568245135582401,-0.05000889340490815,g
-5.333838372423765,-1.5539083116697472,-4.117094262038325,-1.6084134007189597,-2.744856778015202,-11.443947235141003,-3.0014211916741527,-1.2204045628756437,g
-7.9615648260853975,-1.7410822202929939,-6.210467821968632,-4.03163359285004,-6.551448355683393,-12.780106588273343,-5.533838816149153,-2.214945011838039,g
-9.842964066900347,-2.011530016937345,-7.6593627708002305,-5.790045083879303,-9.866136738831624,-13.293026392019897,-6.69019966865379,-2.8010280167668435,g
-11.019613260302844,-2.337044492080792,-8.482877854766693,-6.785847426136684,-12.370735675932398,-12.929393966615127,-6.407746382863273,-3.8456830961864794,g
-11.544950824968302,-2.791679810921889,-8.78690783086494,-7.012167437817579,-11.871570419675592,-11.851250735543601,-4.850950541271087,-3.7186934194479093,g
-11.456391105493669,-3.3969001997492456,-8.6857423652745,-6.543114218397676,-10.527237494045167,-10.362105143964294,-4.385740842654187,-4.178942094143365,g
-10.805870041841342,-3.957635784145259,-8.254858928245335,-5.497103111576988,-8.515741596961368,-8.771263183594213,-3.8059893743222433,-4.4827381904351755,g
-11.88249120708341,-4.279676992934613,-7.569665195611869,-5.767395189694258,-10.120418580283012,-7.2973132701607,-3.203862160985795,-4.620827057310757,g
-10.66718681294859,-4.465594671640668,-6.783131250794591,-5.800336824066139,-10.471849459383053,-6.063665836884013,-2.607563814702987,-4.518179999331878,g
-9.744606627171077,-4.798549449472414,-6.151958598248802,-5.617143558280174,-9.780351308252746,-5.169495005399756,-2.0763803114372825,-4.184691391556895,g
-9.59111080837008,-5.4279153502360495,-5.987360401831336,-4.169969690851958,-8.87444485241526,-4.785519953085782,-1.772955062167932,-3.8201335107151544,g
-10.53965779446749,-6.369684719504961,-6.558607975766416,-3.4397101413547824,-6.625257801243086,-5.191635652040487,-0.3535859519849261,-3.7612854749250717,g
-10.287635547067413,-7.68439399812964,-7.969007047307303,-3.6173392634590114,-5.684792981852519,-6.672082064660929,-0.2559962532686958,-4.301340921006794,g
-10.040654413096352,-9.35376357919436,-8.05889198876457,-4.584825849212926,-3.6805586724145654,-6.735588702344255,-1.4714651692748235,-4.420505960128942,g
-9.525352363956188,-11.029120688551576,-8.013766128713264,-4.340819567779876,-3.775216623578074,-6.91204171456485,-1.7003212145407556,-3.775958250172092,g
-8.660052365253534,-12.234481277461926,-7.689507828430967,-4.021462784930007,-3.9261309779000806,-7.026009921054715,-2.2140894925786743,-3.3876855548290026,g
-7.57409057329623,-12.90203333128925,-7.118731931718683,-3.6438752614942667,-4.142026032805496,-6.978673666051705,-2.8294523608051585,-3.1418571279502103,g
-7.742869869254788,-14.483797280301669,-5.8998944180851485,-6.237942887722289,-2.682759712838485,-6.5476333558470206,-4.091039797397836,-3.202833496184465,g
-9.105625389571655,-16.027102305715125,-5.448449881133347,-6.41443637522009,-3.6392648128958873,-6.3031096387972045,-4.665160798495186,-3.581978174663098,g
-8.174093112650834,-17.918218537662288,-4.962264431191005,-6.6344127079889645,-4.81361048782227,-5.9424808983484585,-5.029350407575235,-3.9925949422405624,g
-8.174093112650834,-17.918218537662288,-4.962264431191006,-6.6344127079889645,-4.81361048782227,-5.942480898348459,-5.029350407575235,-3.9925949422405624,g
-6.696040786823754,-17.525419038682266,-4.165233007555741,-6.567874809021285,-5.2781377101947955,-5.170526933153063,-4.9423756586001675,-4.097459141215521,g
-6.722385513655344,-16.655671670121116,-2.7986640612330325,-5.940292328609208,-4.448274291119832,-3.63729515834259,-4.184759139817949,-3.6013122667545914,g
-6.709183054950893,-17.053162543007925,-4.434833659901192,-6.072402199362255,-4.593349435832663,-3.719152299277367,-2.689473221313553,-2.414629561098347,g
-8.45935561281894,-16.579774617041018,-5.493701820824386,-6.9302518696390205,-4.5805627398908815,-3.724783789107562,-3.5829524466556135,-3.2828973652473166,g
-9.78391099343461,-15.795374017612513,-6.096261610466835,-7.357207394464067,-4.421559219425347,-3.6678701425727285,-3.8126327231652475,-3.536607354812849,g
-10.956464842125715,-15.17793718719443,-6.538836878418924,-7.579451864801913,-5.698225755269098,-3.5620918744124217,-3.654475249392987,-3.4390488830078474,g
-12.248826902701415,-14.681675560290566,-7.094495467052084,-6.293142681577894,-6.109646798162619,-3.4211294993661965,-3.3934285041306795,-3.245717510952094,g
-11.667407943999589,-13.981771944818423,-7.881079499517265,-5.096330032531608,-5.85984086672837,-3.258663532173607,-3.219506167949981,-3.1063969008425705,g
-11.36817253096128,-12.9615059677074,-8.882963675003968,-5.394282960409068,-5.359989528342225,-5.170943456988473,-3.246964173997198,-3.099428519081145,g
-13.469043482583691,-11.78275435180862,-10.0594786335305,-5.750013041449923,-5.227206394902683,-7.05592415708642,-3.592194904872268,-3.3467374911527275,g
-13.477908504066368,-12.9347415436099,-11.429772341864261,-6.29319694241172,-5.95445630746116,-6.903444706560191,-4.407050466410603,-4.067727257868565,g
-13.501218957189337,-14.371585846157979,-13.074681613716749,-7.202249134701802,-7.65131134765412,-6.769817192522086,-5.833680071510775,-5.4935864289189995,g
-13.544291564712688,-14.247607463127911,-11.433630962381127,-7.1887977886385865,-7.5350540376765505,-6.659348123187348,-5.875642521540106,-5.548423185897479,g
-11.81395294773052,-14.870232071751067,-10.338149919744799,-6.334564463231323,-7.5030188599480825,-6.57479760110361,-5.007960756635039,-4.737441522225511,g
-10.505819607298335,-13.706120290719337,-9.669397594371125,-5.907691756360938,-7.532516354411196,-6.517379323150896,-4.785214038590004,-4.511992049155646,g
-9.349775689346917,-14.595451161926567,-9.134371230550103,-5.681800038267065,-6.03532913340852,-6.486760580541625,-4.934709566902011,-4.606649555915409,g
-8.07438672535368,-15.184647267773784,-8.464492998643493,-6.843245504060657,-7.0249087320289645,-6.4810622588206,-5.175484787953948,-4.766921494044767,g
-6.536187030723501,-15.667653223245946,-9.256944078270628,-7.752583735642451,-8.162743392418088,-6.496858837865017,-5.32222947347608,-4.847166084225807,g
-4.710931873678528,-16.16728492044391,-9.683965929820976,-8.518143451512842,-9.849272731972158,-4.446609422470201,-5.266108669751214,-4.776322613155058,g
-4.75105265237295,-16.541876430612405,-9.804876993816086,-9.187778944530688,-9.690929408496475,-2.4395213126420554,-4.89686850073571,-4.442885578665319,g
-6.833305929773024,-16.625826688149026,-9.585849193859644,-9.66950614732302,-8.739342454006907,-2.4913712119017664,-4.069512894277652,-5.095482122390794,g
-8.83132075987221,-16.38070175797953,-8.940473417668846,-9.812073050013218,-6.883276887780324,-2.549916405083345,-2.649466198289145,-4.935628153758056,g
-10.712296573725487,-15.747911038857348,-9.762589542436382,-9.525909436005287,-6.896521810055157,-2.6133733502502543,-2.6414606993407377,-6.104201484473593,g
-12.365103721178631,-14.612006652553195,-10.30896546364637,-10.481038140718962,-6.865548882365301,-2.6799585054659554,-4.212538545398223,-7.1081251805598695,g
-13.574331208417973,-15.195556004407418,-10.465016738683843,-11.102523418017537,-6.789588230241888,-2.7478883287939118,-5.47400350565097,-7.7615030374025,g
-14.111810514890738,-13.379032589366119,-10.126952666459191,-11.153064465483165,-7.680345222158901,-2.8153792782975864,-6.226674722869639,-7.808825982906535,g
-13.914077126697567,-11.518464422481454,-9.319271530784928,-9.159291369335065,-5.777296567624871,-2.88064781204044,-6.431259644453351,-7.141747610859424,g
-13.206562018608054,-9.642568005053258,-6.560872478686835,-6.8743682596621,-3.9470694995599374,-2.9419103880859345,-6.300935524047651,-5.9563746093717596,g
-12.443528546843943,-7.907487488349093,-4.08148391694524,-4.611784049462546,-2.038789384243437,-2.997383464497534,-6.218209791328057,-4.6957569639136825,g
-9.934537458152214,-6.682801194232117,-2.216988060544852,-2.716892778014968,-2.326252204467915,-3.045283499338699,-6.518023430881034,-3.812391832487589,g
-8.098987504697117,-6.159910122900692,-1.1187712952917346,-1.3641323209569927,-3.489456798425683,-3.0838269506728935,-7.300270662789034,-2.0853802766350293,g
-6.951044955067987,-6.072150314135648,-0.6945555721583248,-0.49566497058655906,-5.282293915514305,-3.1112302765635786,-8.427853206966208,-1.0622183910466951,g
-6.432534861604582,-6.036050693667641,-0.7877457162651965,0.019784198361458748,-7.081425076871248,-3.125709935074217,-9.704258103986984,-0.5264464663770376,g
-6.640994977183428,-6.046213556199181,-1.404555962997256,0.1571054239871163,-8.375552126640851,-3.12548238426827,-9.41081242590565,-0.4103202529236377,g
-5.4131939157555085,-6.434269165154996,-2.733013271370014,-0.33140546559311373,-9.153277162377586,-3.108764082209202,-9.49154222829909,-0.9187989198219867,g
-4.892414538680699,-7.460069243999586,-3.0595312497199365,-1.737021493630395,-8.777274345130294,-3.0737714869604735,-10.188224325320315,-0.7795669514820674,g
-5.133926429530482,-9.139793219709443,-3.8926614844640275,-2.3885559543632993,-9.748126684475704,-3.018721056585548,-11.47838775415038,-1.3869140028888096,g
-5.90404140161313,-11.333768992001719,-5.004429646409218,-3.5638254670526357,-11.74874860058774,-2.941829249147887,-13.044478397835544,-2.546989768706224,g
-6.740176605190506,-13.738383126822086,-6.014462556048839,-4.844852858580428,-12.17193375995792,-4.8093646280722275,-14.482178928977982,-3.81541611043336,g
-7.180225072130166,-13.63969927299589,-6.574223570960608,-5.80720404802459,-11.954176304936796,-6.470255009298553,-15.54562206647781,-4.734783181231592,g
-6.982736175682925,-12.923117404613624,-6.5530243343193035,-6.2388714523673645,-10.88044106915873,-8.107325064167835,-16.23492165467,-5.063020606009308,g
-6.154758485587061,-11.816891290267838,-6.054756379325382,-6.179212005636802,-9.20584244765393,-9.829686397674354,-16.687214446074602,-4.824543374268197,g
-2.905142314655081,-13.942479539072249,-4.181519839092408,-5.094029046433871,-6.496640112253611,-13.403555336921158,-17.11125679522467,-3.221487210667518,g
-4.955659994574253,-15.078305939707107,-2.78917049423477,-4.116189290232808,-6.027993640149992,-15.1049460434059,-16.970946548999233,-3.3767708588621645,g
-6.804406891180468,-13.914384539635117,-2.8893313635304922,-2.792660691664793,-5.803911866890848,-16.733385390037846,-16.62126288882735,-4.551696860078968,g
-6.804406891180467,-13.914384539635117,-2.8893313635304922,-2.7926606916647927,-5.803911866890848,-16.73338539003785,-16.62126288882735,-4.551696860078968,g
-8.663843004057343,-12.487818042386401,-2.95009651851698,-2.886522286931563,-5.379709851269127,-18.33776414877574,-16.252639747966818,-5.680097387670477,g
-10.641527359642279,-10.768820201607609,-2.9711750593410096,-2.9276401777547045,-4.346034643577486,-19.94779123986474,-16.031766646214148,-6.881178457181035,g
-10.56281383386591,-8.749123478010228,-2.9522760861493595,-2.91168034717208,-4.652826190874793,-19.579675184521474,-15.932103470565284,-8.124453882969991,g
-10.48903709340119,-8.767835765111741,-2.8931086990888093,-2.834308778221552,-4.86751296336315,-19.344862352913648,-15.747789536191798,-9.26537068592755,g
-12.480528136129363,-8.783215114541331,-4.601299788519987,-4.029386327854091,-4.979586981644719,-19.019991606139985,-15.265897333317653,-10.13687745719076,g
-14.254689598200045,-8.795014352630826,-5.972684933067673,-4.667551641336747,-4.97854026632166,-18.44138587160383,-14.410808441462956,-10.630325766939833,g
-15.710438011743623,-6.68711028118639,-6.963915726745529,-4.771544009494857,-4.853864837996133,-17.54307412617202,-13.246342881490197,-10.722479185388654,g
-16.788694004921737,-6.388857773240074,-7.5647916450067685,-4.420336575979813,-6.647435259287188,-16.339501456707147,-11.890153088403478,-10.470103120722431,g
-15.441904233342779,-5.7659535393602255,-7.86508568413292,-3.7683944888493803,-7.4320768872952545,-14.893145402932765,-10.449623774687506,-8.596079761532787,g
-14.03683648031037,-7.273286376216047,-8.086388411153562,-3.0714803302624047,-7.841370566132755,-13.293456550224743,-9.022317796782009,-6.962799521497034,g
-12.614209669079864,-9.11966351246428,-8.542615717829166,-2.6677899361176776,-8.646672481250953,-11.66377770948903,-7.735920928939491,-5.646681729015412,g
-11.354430278460978,-9.109842357686105,-9.548495979458457,-2.8942811447117043,-10.245895554966664,-10.174938371588524,-6.775159304280214,-4.776768187243049,g
-12.654348780875136,-9.118789798672783,-11.305169147173096,-3.969342376652167,-9.996352945764624,-9.009694736015152,-6.3413934118090225,-4.492852881996873,g
-14.511983857231812,-9.141541609358326,-11.327297866419105,-3.9646058654094007,-9.822372354756142,-8.27165703915281,-6.540391120118788,-3.2933909570113036,g
-12.463403384187071,-9.175639399270441,-9.592259824691089,-2.70207308410039,-9.720537268192668,-7.922111812069419,-5.494320927135622,-2.380903200360163,g
-10.656791990634177,-9.221130613530502,-8.1863576709034,-1.9938675876751941,-9.690743587287521,-7.816473984917077,-4.736591322662227,-1.849032639312717,g
-11.310490554758893,-9.280568532853568,-7.1414770020922616,-1.8060655523397002,-9.736199628215877,-7.797111124476425,-5.845553426172532,-1.710981468638673,g
-11.896146169744572,-7.521689187020778,-6.462754497365097,-2.0545625682878623,-7.8110435800978975,-7.745706608267547,-6.883728373697255,-3.0110668782629917,g
-12.326459077560756,-6.065408424495092,-6.061752278511764,-2.5858154881213755,-6.841775252534221,-7.573652879144717,-7.83779298997379,-4.239938420301085,g
-12.563406265212974,-4.567365724238334,-7.396709172212243,-3.151036997154973,-6.197451383075357,-7.202053812005154,-8.692486470583011,-5.4483337042125966,g
-12.553109896198947,-4.716909684267463,-8.363982972742669,-4.860528967625127,-5.112665782894844,-6.559940178441458,-9.32565527665746,-6.5630026962283265,g
-12.192026424545968,-6.500820247710855,-8.710361301425785,-5.8996467621976,-5.2842536647889125,-5.595563734363025,-9.509289662381821,-7.348745710332122,g
-11.374681604262594,-8.24880162235329,-8.227828774793801,-6.020187866202143,-6.938059663816086,-4.318495344718519,-9.043153995583264,-7.548064702711055,g
-10.111158688839199,-10.021607124723063,-9.42215036940311,-7.1451286969274275,-8.15172048984779,-2.8805125258741517,-7.960244425907225,-8.66654450599266,g
-10.875340581892132,-11.902735721802605,-10.638473378744592,-8.224658512518662,-9.046195113983872,-1.6155584103207157,-8.43729169446209,-9.677785934206879,g
-11.880368890967826,-11.837373129175,-12.093799825205162,-9.460777885619635,-10.089587684155106,-0.9362982695014981,-9.302645505203298,-10.746996388576516,g
-11.0531327013525,-11.7887989083164,-12.035306792650903,-9.392072832812255,-11.85762366277812,-1.1216233832101703,-9.207143954933146,-12.021755571976552,g
-10.950678472913003,-11.761868131881027,-12.02760920099158,-9.34581324246992,-11.771468676132319,-2.164492796532297,-8.078553658032398,-12.360930277701588,g
-11.538270255260041,-11.76056803445347,-12.071666612494516,-9.319891122354514,-11.728022211297167,-3.796597493408048,-7.2984280024066,-12.896605649119286,g
-12.60653455346643,-11.788018012548683,-10.489315163168035,-9.30720069100154,-11.700800084253066,-5.644916957390494,-6.6819949824130855,-13.083535748175148,g
-13.9188450341511,-9.829443112134834,-9.071317546072581,-9.191577558187133,-13.738748031078604,-7.403004761599429,-7.669126745869086,-12.65115927926057,g
-15.36354833065663,-8.090409804181887,-7.7565649930629075,-9.053774228189411,-13.098170789189075,-8.932310880783763,-8.424143644096173,-11.830295060057775,g
-17.015247603784577,-6.364988815317379,-6.551711014330527,-9.258905322618526,-12.593067015030206,-10.243135273220656,-9.281711161788799,-11.190261231702362,g
-16.44789476618636,-4.5977708738066045,-5.435476915107586,-8.132468687775729,-12.79517562346065,-11.352673659374224,-10.500242815785757,-11.231780685849495,g
-15.728584889569785,-2.7097332193910946,-4.275939700808477,-7.036729602406287,-11.752033797480959,-12.128968764029693,-10.03425412347492,-10.227036108454767,g
-14.775864761899879,-2.7592985051420786,-2.8715588476468277,-5.783151488548588,-10.568191490022496,-12.288250539338456,-9.189720103044705,-9.197363381897425,g
-13.53835992659722,-2.7859277001680893,-2.9835906562255152,-5.840726760684918,-8.664909814085792,-11.580497890771033,-7.758127718622373,-7.985850075570582,g
-12.034724619941494,-2.786638424329936,-3.0488254769721523,-5.8838783978880755,-8.612687579385284,-9.998053897360572,-9.16328367067054,-6.609832344617918,g
-10.343878674659724,-2.758448297488428,-3.0606809038252107,-5.910521696224377,-10.099379153785863,-7.829571277244869,-9.803432616680926,-6.502534494933566,g
-8.55049918358688,-2.6983749395043755,-3.0125745307231613,-5.91768417736853,-11.039718971958024,-5.554461290820585,-9.736332787018807,-5.956891366933019,g
-8.202735661113493,-4.292076267893259,-4.523192750440899,-5.755898289719793,-9.54925006679691,-3.68539607376488,-7.672912491243141,-5.232899719974806,g
-6.936144263604824,-5.660950415765692,-5.551543782146003,-5.325117667187418,-8.48903523623255,-2.6224223857281355,-5.86823255585579,-4.4928171640676196,g
-4.71372766469643,-9.247819155884745,-7.5929594406839245,-5.910178693795577,-7.375340299542614,-3.346810458280102,-3.4324853581225647,-3.1631017342819994,g
-4.39096749995064,-9.237591276171827,-8.98005724595463,-5.883682246089352,-8.966775978597507,-4.806770971703227,-4.588715724202301,-4.430084757954276,g
-3.926210500036177,-9.276323277387402,-10.530758875576137,-5.885297988773231,-10.794321245479242,-4.241881122271827,-6.08591003446822,-4.408340935527704,g
-3.926210500036177,-9.276323277387402,-10.530758875576137,-5.885297988773231,-10.794321245479242,-4.241881122271827,-6.08591003446822,-4.408340935527704,g
-3.311456660547517,-9.362667691006877,-12.05952261535575,-5.91878986150646,-12.608845321304731,-3.85084453360514,-7.624673723974174,-4.393766036953733,g
-2.6441978915730044,-9.494242829033553,-13.442081102456479,-5.9872678747172134,-14.24326209049452,-5.939295259760515,-7.546725495404845,-4.389210419992688,g
-2.167920346622401,-9.66763278399861,-14.71517090014928,-6.0931881096025915,-13.927102561870967,-7.826280249080517,-7.894724647590651,-4.590140233548597,g
-2.211721828269696,-9.878387428961114,-16.083118555470826,-6.238352718128626,-13.650476268100437,-9.235950997031495,-8.631711105764643,-5.225583539377555,g
-1.5326206436071124,-8.432382119853354,-16.18316902775722,-5.238108867599537,-13.362163655313472,-9.874284987956873,-9.539333153510626,-6.249353520413135,g
-2.509038511370206,-7.198717777540371,-15.068209103870638,-4.587163926445608,-13.125640828626189,-9.48626413265861,-10.254588908107968,-7.413140238251017,g
-2.4213668549155645,-5.740565948746047,-14.069165847806573,-3.8700737851335942,-12.738713008504012,-7.942435093583176,-10.417164756448788,-8.312209192636267,g
-2.601881460185618,-3.801635125917232,-12.885151838772652,-2.742031916381362,-11.89677321692361,-5.299924997117586,-9.85473395611341,-8.553316468931367,g
-2.888181219711721,-3.8422662991573517,-11.416539932719601,-2.7904478483220982,-10.669103839406963,-1.7563632335470891,-8.649825124585222,-7.9587555088536375,g
-5.022366172448666,-3.7731053989287795,-9.749398069216804,-2.748482213944648,-9.417844927832636,0.040095650373499714,-7.0237018343556485,-8.475453567408945,g
-6.297914961050554,-5.061240246035146,-9.238348533389757,-3.606425843881129,-8.265598037232127,2.262943435232681,-5.169258809095961,-8.770172211548434,g
-6.508148128171472,-5.325156182222607,-7.832889805439843,-3.6793389271755546,-7.027627738371687,7.079265084595081,-3.205863868063024,-8.849136226780606,g
-5.616895963761179,-4.711836496045747,-5.653684523446886,-3.1298104327693776,-5.677190582192692,9.067871798357192,-1.2534835500376782,-7.385263649874827,g
-3.759880449304389,-3.6081147501101234,-2.9219556567958604,-2.280805341248601,-4.460420451588243,10.237515930154428,0.5244860199810875,-6.2538376415220664,g
-1.1916060769226235,-2.3600685638400343,0.11597890223646279,-1.4792970685099285,-3.4463205249381637,12.453524143270943,1.99149494580589,-5.415615238397059,g
1.7897822305389177,-1.1631131341080927,1.0892909694028103,-0.9561472525578424,-2.3343612008787535,13.360805566664075,3.1382040999387515,-4.713805736869218,g
2.647720949127419,-0.17414340899902184,1.5380931188535822,-0.7818143106959833,-0.8732212258787466,13.296095639510932,4.086089242983459,-3.9636978491355235,g
3.0284866471670506,0.421553854648821,1.449485693321917,-0.9411696405361836,0.8094400727807912,12.681419404731711,4.967140834111856,-3.097928762116348,g
2.971491017177647,0.4670200609269951,0.8629452242499511,-1.4448588120462875,2.402425958902664,11.730886954380292,5.768724832264835,-2.2533465726339825,g
4.2375148716537,-0.14904691078811147,-0.2093979696709436,-2.364636574846268,3.6159266373670484,10.335494505972667,6.277835306560581,-1.7004456773319236,g
4.082200593110478,-0.03854236065094137,-0.5788855026417232,-2.7650042696730863,4.064691120109717,8.244746218782034,6.205772670524821,-1.6532846716786547,g
2.3895092932604665,-1.5629221129180249,-0.5168359168092558,-2.597620080432247,3.3362606448171404,5.411998712642208,5.423798646767133,-2.104438572880007,g
-0.5915361699506361,-2.0331764998942536,-1.3986418955151687,-3.0566984404339905,1.4596393628745399,4.64474343572099,4.099716491463145,-2.813714967873498,g
-4.3559674525629735,-3.012943905566597,-2.800545299007728,-3.8177371554304798,-0.9667755514225569,3.927063039643218,2.5814430703315137,-3.4725128346793723,g
-6.152716899245846,-4.1473743974711486,-4.21457990503571,-4.533703013237509,-3.4017177272210097,1.4487399711964275,1.1322319716243825,-3.9310186056480463,g
-7.56865677455872,-5.231653578128579,-5.251379596986838,-4.975151996937429,-5.884727331894604,-0.3032830351637859,-0.2033705930345489,-4.2949010095581395,g
-8.445927370074493,-6.098860411280347,-5.732285834066748,-5.0745207276877595,-8.63819975859366,-1.3766866208777218,-1.472480480495738,-4.780935795055554,g
-8.798745954481733,-8.589450110431589,-5.646101925783123,-4.851310263712167,-11.365621676531468,-1.7861212529952042,-2.6001464060716075,-5.4537193709299405,g
-10.390350142956509,-9.801064557364853,-5.039167228177769,-4.300724908252637,-13.316569293015698,-1.4557619371653368,-3.3490092943461116,-6.113836566698586,g
-10.838265966492207,-9.596165502515097,-5.533813767078864,-3.35833720227336,-13.960355425324627,-0.3420956269320673,-3.4966186997362243,-6.463821204364106,g
-10.264407230888065,-8.178826190642033,-5.022955588969101,-3.0627795629398262,-13.324818114440694,1.4170452733098586,-3.0413648597964626,-6.37877688003361,g
-9.025406554384032,-5.959164038824373,-5.737791291955532,-3.775295760052456,-11.832317058153965,3.474259239230746,-2.2397060967620925,-6.002970981950535,g
-7.539748803636476,-5.83326545531365,-6.480676069367965,-4.387836462997741,-10.150594541815599,5.4032824552360434,-1.443439309784101,-5.592976255557039,g
-6.054762854525142,-6.0818173436613865,-7.41103358756966,-5.040462849599603,-9.046139748397982,6.901178706806645,-0.8699275022458085,-5.28053939265226,g
-6.756885281258015,-6.687727201518831,-8.44875556309552,-5.707570750198076,-8.87548273578564,7.888627872953474,-0.4954276280580693,-4.972392968572074,g
-7.464830853866523,-7.3620849548139855,-9.356227217329264,-6.2509680441883635,-9.140319065898366,8.398824467300017,-0.1705601508461431,-4.453302702141985,g
-7.956756800409307,-7.7995382075587285,-9.912849045444244,-6.525003447895003,-8.923260720934584,8.369236261220852,0.14938425333755134,-3.587837169699481,g
-8.11900675775588,-5.914429369878929,-10.053338823359521,-6.458745911227067,-7.888504596935219,7.589670606022537,0.30431936524721637,-2.4452627111155945,g
-6.257249008034088,-4.601884371289166,-9.877053114756645,-6.071982345202264,-6.594284634611313,5.8937183789132215,0.0823501098651331,-1.2355800837636615,g
-4.834349075507154,-4.001027314380318,-7.9593799854104175,-5.436742941613173,-5.790430089872218,3.3858055541945236,-0.5355425909952288,-0.11513454485826768,g
-3.75228910321198,-3.807574041994557,-6.569819505073736,-3.5384766832854715,-5.721435114190693,0.454079593569303,-1.3103105660897294,0.9384643401808305,g
-2.6568794788971073,-3.591177268053707,-5.458012719248769,-1.8251915707567914,-6.131939877243162,-2.426659603418039,-1.9267344165205382,2.0404948470237323,g
0.9254796924356865,-1.6458550857916225,-2.8725150256895633,1.5356865171058545,-6.237307664115413,-6.735105459192482,-2.2824782713989764,4.191512406728114,g
3.4857480344548115,0.37964973762000165,-1.220845086633918,3.060790943600581,-4.801199411218392,-7.852360652417476,-2.261106762233047,4.759730591657787,g
6.181120471980286,2.6251831992860617,0.42753296122979717,4.235822984606264,-2.4900495704971837,-8.172603406679013,-2.247824376801743,4.771534252191271,g
6.181120471980286,2.6251831992860613,0.42753296122979717,4.235822984606264,-2.4900495704971837,-8.172603406679013,-2.2478243768017427,4.771534252191271,g
8.621820839135427,4.427255853545226,1.7931549130969657,4.935052044542088,-0.38085398258604614,-7.651648647931816,-2.1443460429185253,4.363635721519972,g
10.51739964266112,5.468638673423243,2.7132160414017528,5.164004003027818,0.5416201180136617,-6.317680558683952,-1.7265115806377724,3.8644151160305378,g
11.729780727464375,5.865009910049681,3.1954649875118224,5.030191908516722,0.2365316214568003,-4.317663110910226,-0.8058585146657844,3.6212496764308577,g
12.254914748816413,5.811896025572802,3.376545291057611,4.683513570754062,-0.5302826839911419,-1.886970037939332,0.6412799693885111,3.8437533000182684,g
12.18964998079731,5.418466358512682,3.4686385573081226,4.2843879886506215,-0.8729901271208572,0.7653266586612901,2.4956469321190884,4.550737396842559,g
11.69544977469758,4.869731095779599,3.704962770106198,4.005508762617123,-0.13447228401715475,3.5398034932007314,2.8477746326846867,3.971374673980924,g
10.936006963282683,4.418749930917234,4.2394945961644215,4.023872352280137,2.0086601187697557,6.3816678880385656,3.134894252444356,3.42176880312406,g
9.999634555992634,4.099364329753977,5.041603648031211,4.463712195640104,2.999253123453493,9.124893643412287,3.448469882721478,3.0486001370362263,g
8.869284305451657,3.6923613855929367,5.907678325564373,5.31363673653062,3.6080833966993495,11.44027693354402,3.8564451848565127,2.99027860379759,g
7.489247093976866,3.110570567808303,6.61919593835687,6.39992584059178,5.67836545037581,12.981287869252142,4.319098623179562,3.2496818138278747,g
5.895002979897321,2.6198658298742243,7.113722517535832,7.471177005361712,6.461023435800816,13.598910375688494,4.679176544315942,3.650231197438773,g
4.30320050952664,2.55694910070553,7.522912439813216,8.344950036976638,6.763965159653954,13.426606402237104,4.729521639067111,3.9077578119404683,g
3.073730937457417,3.018590800448863,8.068598357774736,8.99717663277585,7.457349310312658,12.773956096621234,5.890126578816768,5.03159923760366,g
2.548102884927785,3.944707067869218,8.91148699554225,9.524541887724975,8.823231335093206,11.9258698861014,6.424689735753172,5.3744611367124575,g
2.8696035487649256,5.280768837905343,10.048787309137643,10.028069980565226,10.645806151205813,10.990169855474793,6.4664641783406624,4.960856415098703,g
3.921903362271111,6.875208279070461,11.329002582328112,10.53045626771457,12.46096726227565,9.894823753251387,7.926130457480527,5.628938925505384,g
5.4406520370189195,8.420550415237368,12.597051992845328,10.994157105877349,11.275273229070015,8.54055007431295,9.421298409888774,6.262219183608568,g
7.204521770511633,9.742771703617645,11.789055308158824,11.405958967530037,11.325406838486025,6.98191186229496,10.949494322801815,7.026727939507579,g
6.961738698712784,11.029507183371,10.826181498584448,10.115412739395275,11.334514593486542,5.456650410225443,12.467638590454182,8.034233554342915,g
6.8579138628611815,12.551048387442874,9.905482556150357,8.822641177068842,9.229011210090912,4.223330211446878,13.8891669294482,9.281901025198987,g
9.029850073795568,14.256358294818813,9.130382443198554,7.741323675099755,10.161795375282175,3.375826275875325,15.110350782249805,10.662469740212803,g
11.043353483677498,15.85563085887642,8.44781138001064,6.961327405393739,11.408903339308036,2.8174043998631215,16.077091736224396,12.040791889269517,g
12.56697395955744,17.189832073731722,7.7075435298409305,6.404564768499388,12.188640351739174,2.3817479543762157,15.267172436213858,12.071483921675277,g
13.30882868271961,18.26633705605173,6.764731412967596,7.144690739136259,12.16516694985548,1.9524191987591835,14.524710456670826,12.295380310869188,g
13.133539061198103,19.012796076117034,5.541965931724521,7.458330989961051,11.468271077192082,1.5030445341835308,13.936725428100662,12.807962437578471,g
12.114156657861813,19.29285770875638,5.711441361584347,7.223260365326658,10.37767153037431,1.0951967438837986,13.576387623374831,12.121712230412538,g
10.511506607988492,19.16816859861682,5.414883036629281,6.4379026992528,11.726603813151923,0.8669926147780405,13.497325418046344,11.458753658452347,g
8.69842583680212,18.887562797053057,6.832795745867783,5.224912605172861,13.752749379420015,0.9979809755328599,11.937153949891899,10.666163170803161,g
9.236521905284986,18.591350797735426,8.325487960571735,5.524151487063948,13.772082617560036,1.6527990465846838,10.404481732989273,9.641831984562618,g
10.285760453689694,18.254470723561504,9.961010288208957,6.015534977636927,13.859423290368431,2.928563419415654,8.985078437642292,8.394807059917976,g
9.78169343378551,17.92887777214919,11.693971528912371,6.779828359996034,11.891243515369476,4.8004793583583725,7.78110216092049,7.035113345037445,g
9.88266235006336,17.76870882332947,13.389860108358556,7.79176532102368,10.286147848511211,7.064813185528069,6.844305007623291,5.6972153653746265,g
10.405929515511971,17.74923175819363,14.905750007410319,8.957538439310843,9.191650097827523,9.354907765113413,6.114007175566421,4.444744026643977,g
11.168040424167595,17.628900047402304,16.19991013864989,8.923189655114777,8.49582189673598,11.302320894096177,5.426754458523154,3.220688660665087,g
12.123761452536884,17.317225943438626,17.40216342865826,9.181894342353043,7.904725876808318,12.753156791666253,4.598116363286735,1.8819707982581622,g
13.377425017780954,17.06832108367787,17.0869845233207,9.76121191751676,7.145895791571749,13.832162851920774,3.49743459509138,2.9366091070932834,g
15.055779955095351,17.18869895645729,17.36974795231974,10.698332122258304,5.964886413499398,14.772662946150025,2.0521715769035707,3.5763594142044957,g
14.889936799667504,17.754844460067076,15.973345392524985,10.430105944186824,4.07503494712356,15.66199462828654,3.652349349873807,3.96281375146269,g
14.369709914753027,16.316962193317238,14.529150516803757,10.138296425709878,4.172599365501332,16.3138853751536,5.2204894152343355,4.321795478647949,g
13.359623107877741,14.73044462782291,12.971304068580793,9.672277075969502,4.191690098177735,16.348387708556093,6.729569783315088,4.863377442175929,g
11.896780171440147,13.051604465436379,11.345482399008684,8.961963354662382,4.140944227840803,15.42100332709067,8.093192373347538,5.722539007567924,g
10.186842782282671,11.311999793639085,9.784576034089294,8.0397562643778,4.028998837178573,13.472637112250913,9.246011070335316,6.949057766138802,g
7.031171857157885,8.127772916685284,7.312003171716495,5.944899667343047,5.808274885521665,8.066513799350329,11.0764510514472,6.949216059822814,g
5.742134027333799,6.947034227111027,6.299471740421457,4.898760014841448,7.496811578160629,5.623298880541884,12.009369216123767,7.015828191655108,g
4.397532288175846,5.864264451642289,5.119150629293538,3.8223736769467527,9.271859658003454,3.600556392987844,13.118865410993584,6.033662019681824,g
4.397532288175846,5.864264451642288,5.119150629293538,3.8223736769467536,9.271859658003454,3.600556392987845,13.118865410993584,6.033662019681824,g
4.383029990966443,6.6195569818978415,3.498471462261051,2.6120418922292123,9.081934953036551,1.7797613553570966,14.43650840749136,5.455999122460755,g
5.469114437041395,6.644593591876673,3.558608469062494,2.691960805338022,8.927239201570885,-0.1165502277385558,14.279155823102789,5.112089622615978,g
5.832088644603717,8.156667879274622,3.5135620885963315,2.691275506892691,8.798743571352926,-2.1879246326566295,14.09932435623431,4.767060087835736,g
5.45011799222476,9.133224256226706,4.764216353684771,3.6181716635644454,8.675761134682528,-4.274748367198628,13.710256349622975,4.201895372146055,g
4.444666591484844,9.43659945720287,5.0441647057331895,3.587895920919391,10.212475894284136,-6.019538476998433,13.043286725246872,3.27278158344068,g
3.0979522421923864,9.230987479612953,4.546079129488681,2.7964376468035588,10.914609686861668,-7.021182320138834,12.192670212802778,2.654681430776935,g
1.773666038118251,9.014337560316317,3.699608500279619,1.6455865657246094,11.097056667795735,-7.029970988183796,11.371228920528702,2.6691915894714695,g
0.7765433026023624,9.282093389812685,2.973459567699278,0.5615713478767571,9.316619275686056,-6.082631777987814,10.757080035425053,2.3251942040747253,g
0.25221764315412565,10.204680308826056,2.6649328122037605,-0.18582584208649838,8.43938076807966,-4.483065245882583,10.338991877105672,1.7913905857164967,g
0.19186016998951771,11.632029731215235,2.82507085125898,-0.5434998991424969,8.050513917908436,-2.6582169912515354,9.887038531989287,1.0551807819543861,g
-1.2059234097230171,11.172959542096441,3.3274422882306185,-0.6020389464353655,9.699691090811594,-1.012016874580316,9.068666602507658,0.018156940023622826,g
-1.7954584888712994,10.788606124543488,3.9950743188830424,-0.4731585405516562,10.77501663271553,0.15863620473102155,7.636971703700487,-1.3563645757032285,g
-1.5738815189923934,10.292089742297577,4.717410877625662,-0.20238247793055547,10.842399408552897,0.7150414210934819,5.599763676536889,-2.9573959050924494,g
-0.5948314611967761,9.870404874346399,4.111258733674319,-0.7678383693090438,9.964760171943515,0.7032404877651699,3.281398086052549,-4.52300334288749,g
0.9866836892895046,10.037274079887144,4.610155929517847,-0.1503978761795901,7.197880174137164,0.30631780445527557,1.2120105475852179,-5.674073347247486,g
2.930504644136266,11.110683801948811,6.265894842642156,1.6704238473031345,6.079690782876087,-0.27894465322637413,-0.1231348043182201,-6.712568886546511,g
4.985045802578185,12.850573465568953,6.9122448372802925,2.7016036757349022,6.9703726274848705,-0.9491424268356917,-0.5189380786199902,-6.005783545225055,g
6.947593943057862,12.530951835851592,7.465956383083094,3.6868570560798775,6.619723393826286,-1.7064131274046996,-0.11192105069524727,-5.675900611059534,g
8.65272831362346,11.608520912262616,7.633604676213889,4.356354382413827,5.707648276521432,-2.5887723235874205,0.7561700127047812,-5.100581860407916,g
9.935444282691627,10.221642130521099,7.368660595313472,4.659287382368843,4.281836946270223,-3.5668596552411174,0.09288364634808702,-4.282118546021061,g
10.66802160917022,8.658307969288222,6.802706852610124,4.690885285669281,2.822067046231818,-4.445784411994525,1.1668082228338985,-3.135128633211426,g
10.866722968631434,7.252933546985856,6.118505387420733,4.569849029407412,1.9213431508991436,-4.849641639812476,2.4992599755461593,-1.6340889173127777,g
10.733516559622107,6.271129099483537,5.4330392199043995,4.351032064453619,2.007440708268858,-4.38223472484188,4.420284750160164,0.10071769769599115,g
10.534407482725957,5.698217416616555,4.721830216962823,3.9918751092145195,3.026126195042573,-2.9153021678641236,7.069094520863899,1.7999278498291857,g
10.39276130656318,7.232369820257979,3.811597383128808,3.3478462278828203,4.258779481812849,-0.7682788951168098,8.40520629560454,3.0788637276328203,g
10.178291034516725,7.970297344462476,4.041463813796788,3.539327562190458,4.656437310645815,1.4157207996621501,9.40271103047779,3.502322363000083,g
9.590118358203465,7.447376442599266,5.015527945104207,4.313779777399908,3.5420596652940666,3.016890108901106,10.966135945838847,3.7667479293582695,g
8.36960736493349,7.94013389788519,5.205529487903013,4.301730899705333,5.045943497423021,3.7300138265314304,10.905350819521496,3.7350574247458637,g
6.484270930343908,7.94482443354453,4.645262958964887,3.5130133763475824,5.9968291305306725,3.6057271988419863,9.309040151719035,2.5337936983242964,g
4.149597848442145,7.508537479457883,3.5126422024392667,2.163665341760235,6.593007051800657,2.871362971572093,8.372720741435913,2.0430109471314615,g
1.6774119873657292,6.65990113516901,2.063893938652593,0.5747876279986277,6.695238108215447,1.7009320839686488,5.3551462576200795,1.4800691862936808,g
-0.7155961451095483,5.519033782168885,0.5836131686299593,-0.9334479408109215,6.090264658405194,0.11150901847882437,2.347069228575642,0.9031436045753635,g
-2.96459336525639,4.273345117857161,-0.6435986216313381,-2.0909408963982257,4.77730264846186,-1.9305483818934497,-0.5101802165864964,0.36825264807625213,g
-5.040175683751609,3.1470802324954086,-1.3511013848118352,-2.680369231063832,3.0723325027077215,-4.291185703935365,-3.1749453121705455,-1.1793653316309816,g
-6.808742695032095,0.3667156428793568,-1.3268655729780676,-2.54500115255567,1.6113560970693193,-6.578747800446633,-3.7649263417095384,-1.7433460891851476,g
-8.038976027762109,-1.363852375233217,-2.076505285501976,-2.9741743451897817,1.165524187689766,-8.323597994075698,-3.6852598842420847,-1.2572228838974304,g
-8.5469872972857,-1.8190782894307005,-1.5820949983546206,-3.762163819964825,2.165208174790741,-9.269252156338705,-4.367421879618323,-0.8753025555222264,g
-8.322504964686589,-1.3691021701944643,-1.8015779186528547,-3.768525337635708,2.7306237420954056,-9.475273984916639,-4.006384367332846,-0.826369061683695,g
-7.527726223866859,-0.5438826852899867,-1.295280478986618,-3.0173071605084987,1.693106760212202,-9.15054736782107,-2.7556181900683447,0.3358166744280623,g
-6.4094436780243385,0.40782160146929175,1.3657400761701317,-1.7378739910802996,3.0178861470137646,-8.435706062831272,-0.8969043912087648,0.7290470256946684,g
-5.215182954042538,1.4205377171678255,3.960263171009617,1.034667866442516,4.296976414218514,-7.354879962534542,1.2598319594042764,1.140584496117556,g
-3.2674545963700417,3.1373994344564897,7.9330106679053385,4.5988838459182055,7.783969418638537,-4.147649454453141,5.359973374392455,4.480594518499826,g
-2.56321954420267,3.8362535729503136,9.128175300297064,5.265214893492564,10.239385176200553,-2.142788049021972,6.948701139251581,6.803862711146449,g
-1.8936518731157936,4.564438540475509,9.821682383272158,5.294269726147567,13.092731174066534,0.04967665445445561,8.166201209436407,8.137641837774291,g
-1.8936518731157936,4.564438540475508,9.82168238327216,5.294269726147567,13.092731174066534,0.04967665445445561,8.166201209436405,8.137641837774291,g
-1.1555048628430027,5.175024901350829,10.021840018153366,4.722600387825805,13.487535211491325,2.386048978940154,9.007764339563916,8.479665610995813,g
-0.4007597740179042,5.3916171361626475,9.686984826577616,5.012522627993778,12.519334946853103,4.779144774790069,9.403439664156164,7.785768731796949,g
0.14216530941382916,5.094974348727133,10.597690589984115,4.871345270869483,12.396314345261642,7.046496054215041,9.220020351072728,7.910555484475557,g
0.21569055453239144,4.321031585000268,10.999216912364059,4.038571604033883,13.13498196469207,8.935105928763381,8.359654427210618,7.2140916607035805,g
-0.22575664751382113,3.130080305902958,9.243395737539533,2.572125287345254,10.525548052708377,10.259994617075765,6.892376514869025,5.74255798554839,g
-0.8797034154817271,1.7339018622752307,7.546018442544728,-0.4180588524762401,7.495111155446493,11.067906661879075,5.120649261358094,3.888541495058592,g
-1.231117831317445,0.6295401520479545,6.311525527088389,-2.6235669050023063,4.598290921042171,11.639400793979771,3.4844377240343234,0.7279315714603596,g
-0.9031918273646304,0.2578316535627301,5.726253921244089,-3.8012354383886295,2.3617223083551737,12.26029654534563,2.3233702591008525,-1.5456798452730696,g
0.06096789345058271,0.49688555726935435,5.6276958754161415,-4.143545576130762,0.8384811078186594,12.961303266241938,1.678259488956329,-2.9106614379992735,g
1.2496253597718776,0.7586288323663067,5.667588774628316,-4.049248761948521,-0.5230939780216681,13.507051934048045,1.3402627972245658,-3.5907466197160325,g
2.2362102220258864,0.6409715323747196,5.64479699408046,-3.7453783295434575,0.08958468822186853,13.658534075886902,1.1294982343374902,-3.762414319105896,g
2.9198428918571975,0.27377209783508205,5.6742529823762755,-3.0936726911212897,0.9372759727403721,13.430898269163148,1.1237012964233581,-3.3288072208253445,g
3.555844922358767,0.00833029713472926,6.027397197633036,-1.7665631270001967,-0.06570946628632121,13.088578028773654,1.590413984576447,-3.5031043212535353,g
4.475929149641178,0.027378055779843223,6.823213132957489,0.3616793034897512,-0.07057302575028128,12.911518258462374,2.689974265295226,-2.862217675845947,g
5.765234797360076,0.3202873846031727,7.86457515752083,2.970552331891755,0.714885462643346,12.973177212118514,4.248156734558025,-1.4409069484583767,g
7.164680883594923,0.7607188771898883,8.735831318140127,5.423638643899749,2.028551581956446,13.115476210031769,5.8076830214617825,0.37366840824080416,g
8.247598356997546,1.066303878464319,9.057840920483242,7.157355014564905,3.707255320801429,13.120601428891064,6.903647982336307,3.2420261891916367,g
8.69486489827376,0.9106334539334083,8.707210888674222,7.988456749905913,5.420239543188595,12.93356706220242,7.3390888736112085,5.2914338347001735,g
8.436837960763762,0.24936705451047753,7.836113076998394,8.092771428981871,6.689395026060311,12.745240894804269,7.255314702322414,6.513269263403211,g
7.573544937416139,-0.6254830968050152,6.668904002106599,7.710782217872078,7.265511713778902,12.844780869429659,6.9467244376808654,7.0435424579699415,g
6.200466582913096,-1.481209608647255,5.262376711710127,6.871623531169105,7.215888914463084,13.368905031701663,6.577357625187157,6.9392221117768695,g
4.346111325363616,-2.3972221611383535,3.4869391108476555,5.390762136514861,6.668178466204912,11.935106701134615,6.062535446415072,6.112668312179009,g
2.078276350748411,-3.4667760073219966,1.2596665858196967,3.1270962725655376,5.809244751624407,10.497942356915665,5.234037162308406,5.980138638945514,g
-0.37241812318641737,-4.46282597658248,-1.2348283090973946,0.23824402420257354,5.105954705031239,9.156742688570807,4.111556200397105,5.387024342373392,g
-2.639366784688553,-5.044901196074034,-3.5828641843957856,-1.256772714085024,5.052622828537818,10.175718780414048,2.986053605932471,4.482377028563378,g
-4.3802496688506105,-5.1639105399667375,-5.380241932821642,-2.338624397119545,5.527632355442829,11.325534788024177,2.2290212747034204,3.493944264937048,g
-5.409515214950872,-5.023491780832792,-6.421375680125658,-4.337220599599286,5.758880747513795,12.488768159363572,2.0231761165462747,1.4084667739402437,g
-5.697132033428463,-4.740324715957395,-6.7095489010077545,-5.583219211412761,5.1385616865382815,13.365980350295455,2.2535214234689747,-0.23004517079786221,g
-5.276651955838763,-4.275169912510412,-6.352524962065822,-6.143491011172376,3.822096004558604,13.618086582893762,2.620090557459764,-1.5284402291103656,g
-4.17038461531112,-3.6074273137469803,-5.44582644341595,-6.030699663244689,2.403515230261588,13.062553245110024,2.86612955963095,-2.5015118807884185,g
-2.3930452543334293,-2.7156662024591958,-4.002420295925416,-5.136752117473421,1.3414355561374645,11.810876004212611,2.9676841954519926,-2.9836882352711944,g
-0.0187984465648249,-1.4373184046539005,-1.975968754719999,-3.3208435469264708,0.8988462108533982,12.516076010011833,3.162454140276563,-2.709321459875837,g
2.7543337865077917,0.37375534488611617,0.6198145480631411,-2.2507887280169827,1.265321627553267,13.478401642990812,3.7887335324280533,-1.477720821282568,g
5.610143651694114,2.5379537063730115,3.5975482593856696,-0.6522071536981728,2.3611946969827313,14.825135790221045,5.044821050446443,-0.8894350405227833,g
8.195480176821146,4.633898470066561,6.603238589948292,-0.27833886076862635,3.724662154441158,14.423949471397188,5.157156497174461,0.03339803062021218,g
10.207253075230968,6.402541953816514,9.22371577624904,0.08272054442128222,4.936725301034164,14.435059706956153,5.422231951838293,1.0588866553011855,g
11.421787880497737,7.833794883834896,11.08255176075361,3.1239795367151153,6.034936865612879,14.649895564191388,5.6591155582048485,1.98818183917786,g
11.689565198009134,8.84547568391378,11.891906450075357,5.20206176600806,7.241158361478182,14.856697947106891,7.046095706327735,2.71467795117926,g
10.960879918502318,9.168601485962402,11.514716778619917,6.144062732044407,8.453880816900911,14.899068241994893,7.730312072776053,4.315253284570215,g
9.343248096979206,8.656507247348479,10.028685791545682,5.938866861883815,9.327095226544381,14.717331475039083,7.653699028773796,5.193909295309362,g
7.119202047002976,7.475788017909932,7.704099256253075,4.704057107093903,9.691286950469541,14.336010078267384,6.88195828320964,5.314851323267387,g
4.678792124091175,5.880583277439987,4.8839472718084505,2.6435121505575507,9.516400812700816,13.801451910764934,5.536890169138182,4.641184746314078,g
0.5557338483312226,2.086276410673882,-1.07189251120285,0.6696614139852143,6.529106077501668,12.365343783639991,1.5599583244877369,2.4675880721950367,g
-0.7406605184634513,0.43002582449406423,-3.745006746028136,-0.3712678797133959,3.561954873806875,11.518022697022548,0.8102455408098657,1.467295896083051,g
-1.4912599934321986,-0.7054244790221761,-5.969278805129318,-1.3672538722828333,0.294594619501847,10.654719372965832,0.00488669548891627,0.20540003790770367,g
-1.4912599934321986,-0.7054244790221758,-5.969278805129318,-1.3672538722828333,0.29459461950184684,10.654719372965832,0.004886695488916471,0.2054000379077036,g
-1.7506908060329127,-1.3898327610833443,-7.618432508099586,-3.5935231289812393,-2.7393091328803076,9.8437050620474,-0.8922863794850606,-1.1965185837312051,g
-1.571782062879945,-1.7959369786285895,-8.61773600972441,-5.188558990406604,-5.398415955542722,9.150216833515413,-3.188207626190345,-2.5758822060184143,g
-1.013491306024211,-1.9378612099445316,-8.96798600843252,-6.071585451682288,-7.64140824033723,8.593655866682246,-5.046011334375456,-4.900687504644656,g
-0.18184236049132094,-1.8059254749910352,-8.78392424233422,-6.251051561887344,-9.352711232365323,8.09116517557586,-6.365227098632592,-6.510667502779275,g
0.7678306448427505,-1.595104555078426,-8.269211419147478,-5.802978949087778,-10.60021393460349,7.472976201404836,-7.175100622211254,-7.385773397557756,g
1.6887232378400914,-1.5458236535942593,-7.603375419903999,-4.837440111508771,-11.689943506270165,6.604208138993999,-7.578139105196401,-7.557839463260502,g
2.5004863084027713,-1.6471813264956594,-6.849689526347888,-3.479393656353711,-12.729854353417208,5.509952583843365,-7.643315507472946,-7.076405532195409,g
3.186403788728058,-1.732943844525439,-5.989109336898882,-1.8690693714433209,-13.408951506966247,4.374826827934407,-7.360242198038255,-5.996874822613579,g
3.746744079070306,-1.7987011993872322,-5.025658160792325,-0.16226959729726573,-13.41857712850583,3.424861431039575,-6.69329176232421,-4.411128697222766,g
4.173772331929576,-1.975649315474423,-4.027734175205087,1.4889934682655885,-12.84088246194266,2.814138569828307,-5.657916753581987,-2.487684339105768,g
4.4751914203357295,-2.232188342012766,-3.077735229284868,2.9702792516038525,-11.921005441224514,2.5975333149958146,-4.338617858980433,-0.4485466289801513,g
4.706669192799994,-2.360997930876865,-2.218961004017764,4.222511972227038,-10.742647887918675,2.768671351086876,-2.8619540089769564,1.5151994486699576,g
4.962460335276085,-2.266547193965949,-1.4567648997321276,5.218022132850097,-9.399314372328899,3.309966077710274,-1.3802502705537663,3.2866821635026584,g
5.31798947813579,-2.0299039072995404,-0.789342319327549,5.908564670447572,-8.21293909921707,4.216999505350459,-0.07360506531632058,4.766692075932385,g
5.764065665738387,-1.684893157923953,-0.2456749158201416,6.194529374280231,-7.414616738980223,5.462852080631661,0.8581615105752668,5.7991121465852435,g
6.1846251450795116,-1.1943699108714683,0.07016072804290588,5.952392813599796,-6.7675808432052005,6.905006944302192,1.2212572650942,6.188398751966125,g
6.408388628182211,-0.6992399144433392,-0.025162297715079895,5.106528327499031,-5.86240511208711,8.229773221676108,0.8664544000211821,5.7993866680846455,g
6.3137034841957655,-0.5231824584229992,-0.698491268054341,3.6916683315626466,-4.695982587941751,9.044748180548108,-0.25571797233323446,4.640146664840232,g
5.910709143919868,-0.8169907729334931,-1.9584641366100555,1.8565585491518295,-3.6563832928591693,9.080890254373747,-2.0503585566804707,2.8650935970306906,g
5.330468230581364,-1.4141066851514796,-3.6132598909159404,-0.19576821900548805,-3.0456876685369827,8.322022974091777,-2.663293253556981,0.7076483606156738,g
4.739630341751139,-2.1398933325918894,-5.370344176377473,-2.2792673256212113,-2.939717886736257,6.953021140320078,-3.4723120885976515,-1.6137966645780124,g
4.276245658669728,-3.0261135382306446,-6.954383912475926,-4.2395009888558155,-3.3941627093829707,5.2177978199913735,-4.320936873570856,-3.951541344238845,g
4.060346253816531,-4.069275744366602,-8.138644453881575,-5.902604626530768,-4.375746982302522,3.3345892685530756,-5.073290506689706,-6.189176481474608,g
4.223185774304811,-5.004056885151277,-8.73933991228152,-7.035167261700519,-5.517920838162754,1.4926412484989626,-5.5960210012810325,-8.142708784986514,g
4.876574146825646,-5.528646852570988,-8.651494642030285,-7.3962142704304465,-6.36645653078269,-0.1350416528088038,-7.285705111091265,-9.534387395580229,g
6.038844757561851,-5.599941982159396,-7.886186594267348,-6.860719241588126,-6.924657053831412,-1.390406936359329,-8.097874461197794,-10.111174173389397,g
7.608247569288115,-5.314148709325884,-6.532345194548685,-5.499140168610529,-7.568919399430778,-2.129224441057622,-7.97687789493601,-9.796644340078817,g
9.428030327272797,-4.648871550066858,-4.675328297693275,-3.5268152857979267,-8.324760507460622,-2.2336066309894127,-7.070448503597527,-8.701951725198619,g
11.385066559746365,-3.541643915170341,-2.3677803296901603,-1.1656069391767463,-8.599379358705578,-1.649393327379466,-5.594890150548569,-6.984136703834821,g
13.441615002882136,-2.101353615791492,0.32299059552831866,1.446960380551525,-7.797982525968299,-0.41203696884218644,-5.343062687762503,-4.723131527765974,g
15.55345937400341,-0.5188491873358808,3.2380661553759054,4.206332724254945,-5.910053369439005,1.3645100717653746,-4.770999662000587,-1.9601240264827098,g
17.53711202103812,1.1244406592531888,6.06637994061294,6.896759410769526,-3.3598406009289343,3.4973851911328127,-3.938601095625863,1.1503735654869884,g
19.029585670503106,2.723694621796506,8.35621405388312,9.118102445664684,-0.6185905882230344,5.719740569557764,-3.0452755081944334,4.244540273642059,g
19.635257961942244,3.9334642986955246,9.664070683177282,10.40570079489137,1.8517555735654039,7.703496896159453,-2.373680521916603,6.825600681306422,g
19.173126244037764,4.382163901471655,9.794265823712653,10.482936025923937,3.634762169432559,9.167406361433851,-0.6068505748314472,8.483044784089357,g
17.80169232397655,4.0925825636795725,8.922099877331139,9.43790150164312,4.658654901401778,9.987777449049222,0.28758217796817576,9.107719755245828,g
15.890798940998309,3.4318920416697125,7.444853943896814,7.663429323942459,5.235543887539291,10.191521592995807,0.4297475584027448,8.935894567193312,g
13.75716018946772,2.6362716830908193,5.683241512608616,5.605627575320935,5.5300337339323455,9.847466546457579,0.10044942477640376,8.365470752885836,g
11.509511194409964,1.629770505698911,3.7212995187914144,3.528881180776873,5.206360342677667,8.986657128550814,-0.4828226312335885,7.678243649031172,g
9.123722078381682,0.3285987153864796,1.509667285186636,1.4767189917046397,3.8963909299442414,7.621474661188617,-1.2629450068462211,6.902111096527515,g
6.64199500939155,-1.141900361534979,-0.9134214529808402,-0.5713531299151313,1.8178730435929946,5.8139910814158196,-2.267690465948883,5.920482155303126,g
4.2942065381366845,-2.5945173962031287,-3.29625057665753,-2.5110839160099503,-0.4037589005118196,3.7257415129595968,-3.4656570570272742,4.695368893460026,g
1.3289561922850934,-4.800318399994955,-6.3243945491415365,-4.942862777314284,-4.0374404371858414,-0.1794316653086911,-5.597537814648296,2.254583672561571,g
1.025836691816401,-5.045550919216884,-6.441350821769061,-4.991135348194048,-5.308511968072136,-1.4458477810105197,-5.9497429157387645,1.5431994870730046,g
1.3325077057507988,-4.5886675453526715,-5.750224986233525,-4.325062014569829,-5.9865084031825715,-2.133524445905596,-5.642470135175091,1.3034072472618354,g
1.3325077057507988,-4.5886675453526715,-5.750224986233524,-4.325062014569829,-5.9865084031825715,-2.133524445905596,-5.642470135175091,1.3034072472618354,g
1.994869507179971,-3.74175165117531,-4.612832378889221,-3.230433715504465,-6.0628505898508065,-2.3906647612592833,-4.840023016433479,1.381799322072323,g
2.8562132473305253,-2.808186676839946,-3.3476992017720235,-2.012231871828592,-5.734801040092298,-2.421719932361065,-3.8601095366882667,1.4871507692874468,g
3.872456066662057,-1.8058551811573402,-2.104439062214813,-0.8799351559623749,-5.10198436126433,-2.3438033995876006,-2.989581602500683,1.346456615345082,g
4.994361172333404,-0.686401879158445,-0.9308800658554663,0.07092994067282384,-4.176814409374826,-2.1478582847057837,-2.3611165434205406,0.8590865604591433,g
6.060365754521492,0.3742618747388547,0.09423951757931359,0.8066873580609044,-3.2004694336055395,-1.7649888823006905,-1.9558948032773813,0.13778506254454914,g
6.807521051906103,1.1091100106541893,0.8149223420447923,1.28883234836882,-2.5610360399791072,-1.1751586675169836,-1.6928546738872174,-0.5885613836343886,g
6.975781975431961,1.4224200140985386,1.0445185689615764,1.4380584976106034,-2.3055254685400435,-0.5018651066842201,-1.5351312233636214,-1.1235919345617904,g
6.414563809195992,1.3002262123596044,0.6369591391949541,1.1518800419068929,-2.097998318041968,-0.02552159804789005,-1.5518333736638177,-1.4031325867741544,g
5.137931726850825,0.6076533118645914,-0.4355537557037093,0.36937117138941394,-1.8081893444217894,-0.05062469095414681,-1.8781688493893753,-1.5062002312823786,g
3.324626835035783,-0.7469234965792415,-2.0085640302741106,-0.8573291655686136,-1.8022727284048687,-0.6777978514235414,-2.5741911524073475,-1.5791389746669622,g
1.2675559071483264,-2.5081879135327196,-3.7334570470903103,-2.3398428122366686,-2.4523702764690176,-1.6782697787347012,-3.497782736978774,-1.7051845203954596,g
-0.717754083199549,-4.189846430429618,-5.222844129112681,-3.809202637546329,-3.646105254642054,-2.6258901538989763,-4.339479763666761,-1.8130295611917535,g
-2.3912581442404828,-5.484308469694136,-6.242759387436472,-5.0300406229469345,-4.98350141317937,-3.202202817657212,-4.8244700929309134,-1.7321287043564708,g
-3.649669938806274,-6.374935997835257,-6.797026823288078,-5.910436476046952,-6.18234183013232,-3.4227533298870982,-4.914236080539554,-1.3794772296421987,g
-4.529885604522961,-6.926738766897072,-7.063725265014891,-6.536049384291066,-7.081128231178686,-3.6181701335899623,-4.838757820722735,-0.906846823507377,g
-5.154076278930448,-7.236387077722836,-7.264921747519622,-7.09342146113197,-7.563675745206497,-4.209123036624273,-4.943808657698142,-0.6506152996273749,g
-5.629376905293938,-7.55507497062184,-7.54167996173601,-7.720880568777602,-7.802683455451978,-5.432914678822831,-5.468769821622966,-0.9138277733921646,g
-5.9500087593887345,-8.134363474088904,-7.866755674810081,-8.390926692032679,-8.312845810467419,-7.183043051856411,-6.392228691354541,-1.7607695376720358,g
-5.980075642346675,-8.857310916335027,-8.049180219960785,-8.918116634603376,-9.343891218799795,-9.063475504481065,-7.43753686094305,-2.9759000753701175,g
-5.551304316559734,-9.26907056372193,-7.864751680143682,-9.089782473060321,-10.333254546423278,-10.62931646616704,-8.24487384204337,-4.204343872989208,g
-4.606496080631826,-9.085907866771452,-7.221933956333409,-8.816131131277539,-10.343133518285779,-11.6312155828851,-8.597177290302119,-5.1765161405600395,g
-3.2702519541573087,-8.483860986553216,-6.207640265921125,-8.185017319252887,-9.030740248358462,-12.066411775927294,-8.52355542537389,-5.863832052272769,g
-1.7918068947632335,-7.799791936791392,-4.980129348680717,-7.385389775228711,-6.929610504130077,-12.021354469896695,-8.194391063394786,-6.435900369000874,g
-0.40617111837972225,-7.1435644654205275,-3.6327043216632036,-6.556572665615012,-4.851568222016574,-11.475561042257585,-7.703062512490037,-7.0291951147199025,g
0.7908907249850816,-6.383360984618198,-2.1434278428848317,-5.670126635261039,-3.273589365930582,-10.231075013014827,-6.920228583919413,-7.520923427458259,g
1.8675163620809663,-5.282281682159555,-0.41821663105008006,-4.541708453024814,-2.1546574038685145,-8.002958958716887,-5.538693228849186,-7.534616970308212,g
2.942360723719692,-3.5388933539306615,1.6033376643659902,-2.994725340221648,-0.9369061307935105,-4.620967837790533,-3.2922017473040164,-6.70625016768486,g
3.991162241873549,-0.9784004991758046,3.807689962344978,-1.0756762226025587,1.213959471726838,-2.6564192548669388,-0.22160589485914492,-4.997231847235122,g
4.730070256214759,2.0397035273781485,5.826394495759284,0.856053855688294,4.652186444895038,-0.20165242751252102,3.198578280735253,-2.7944969793143386,g
4.716194806676222,4.578771399451105,7.147522330912669,2.274761752930805,8.560287247522435,4.02284390900442,6.220832813888027,-0.7073776003029756,g
3.632968968772116,5.786276683869368,7.406587285664692,2.7965188073056764,11.38286613552021,6.947431364720873,8.227172029709767,0.809189365689328,g
1.5463827009730067,5.589347659030255,6.630730389749461,2.426688295742014,12.191911798150132,8.245118402797596,9.093875696873214,1.7466744321029037,g
-1.0786529493765462,4.61187995118544,5.217220240438709,1.5553986621037175,11.44870537094767,8.102130102265386,9.216633360340046,2.5216177556224695,g
-3.619409680558939,3.533090230989191,3.674861725598548,0.6991385277728608,10.367669300181555,6.971480893903371,9.166707760720879,3.6235554646735046,g
-5.616213011619915,2.6970480399668117,2.3492461072806465,0.17796304955179795,9.832864673487384,5.241433122705892,9.261451606208318,5.193660025741355,g
-6.95905668652888,2.158109811822647,1.3066919270645276,-0.041618755859687974,9.995763262590026,3.0452544761468734,9.377285857142974,6.881499091823608,g
-7.838583221908583,1.7655195034695736,0.40098823757863933,-0.24091854752685427,10.45937250039711,0.3023018737154939,9.10661196994199,8.091413492623694,g
-8.513920446951268,1.232968731567071,-0.5414462617643376,-0.6768401302183904,10.532453247785696,-0.6555887687400122,8.108827341018952,8.395778288837395,g
-9.060698451934929,0.44270310089370063,-1.5278741453290032,-1.34824741836696,9.640422846398554,-2.1554420538851575,6.405168509384706,7.7926364549289975,g
-9.280388394194446,-0.2553316606429218,-2.339901427684276,-1.9640003356720546,7.912205567725399,-5.843861388502762,4.4179454434713845,6.660974782559249,g
-8.845000241716338,-0.2793346915386069,-2.6777259928312587,-2.1255573380801307,6.231014778968432,-8.791282852456273,2.7173799015457094,5.4904933978820125,g
-7.566982397543848,0.5907556891805548,-2.3888123356827786,-1.5851755956432185,5.3934969323162525,-10.584871399760498,1.6565196594296836,4.575735114292925,g
-3.2477272678159523,3.672223761457238,-0.44838358698822456,1.176026284856518,5.414159839034522,-11.136922049908696,0.9836064373420215,3.130502045352398,g
-0.979887684992225,5.32918933264314,0.7749819646263886,2.8218286371708614,5.296610661702324,-10.6450208982809,0.7934665702068806,2.1854340450095893,g
1.0548900541758897,7.026779693820076,2.06199167657248,2.755924741663368,5.16259748944331,-9.918016995850524,0.639854842300888,1.188401475412127,g
1.0548900541758897,7.026779693820076,2.06199167657248,2.7559247416633674,5.162597489443309,-9.918016995850525,0.6398548423008883,1.1884014754121275,g
2.938702214951222,6.515795233950115,3.5059375436118776,2.542182075483817,5.2713885875566335,-8.779328668869411,0.8136933907041964,0.5392687637895367,g
4.8250732332989115,5.935741349911497,5.207973743101971,2.4608442932884493,5.712241954935974,-6.90224680464226,1.6428821347687717,0.6071848446025306,g
6.667742190938162,5.627891242285132,7.09613852986259,2.6828736080451963,6.5389132642525025,-4.140047248234264,3.219099343399815,1.4688489706185732,g
8.096005729507304,7.809066935723332,8.82145770324909,4.4406587391771986,7.7249073635656815,-0.7728263874499725,5.258910399495859,2.8490642690777457,g
8.580025479851455,9.706958086420785,9.873126613505653,5.51294558327657,8.964790855053625,2.5625120932829413,7.215176859959543,4.275249054214355,g
7.779828342211135,10.991986160523519,9.870153016752521,5.519109838627606,9.898898736329908,5.231536511174196,8.583262695194012,5.331701712342825,g
5.784235122012433,11.68340545196366,8.778470195070161,4.387251237975664,10.565031419068054,6.936467443005254,9.164177335589143,5.852156417553081,g
3.034431793002019,11.881103558110729,6.860976424485983,2.340401301227401,11.223166202586977,7.7405836419311695,9.068809525063973,5.920039404920286,g
0.016958904905690277,11.409431487324818,4.4447590711640625,-0.29821951854781126,11.645726463377027,7.818156772544485,8.497933853419507,5.684669367149052,g
-2.9955853782549577,9.986184980149236,1.7426597515586841,-1.622221132926589,11.019937635201275,7.201022338246064,7.537647426507698,5.173267328243518,g
-5.954958062830684,9.900069089938599,-1.1457302941152274,-2.9879259892864143,8.803410205574508,5.729423684894538,6.14564695400806,4.289070901852552,g
-8.833923757245442,9.469375954936961,-4.107763760411221,-4.401835179065538,5.4037374677936585,3.2059485338585096,4.28593151643143,2.9828804089301384,g
-11.418790960277917,8.90619135335786,-6.890600546387515,-5.778898651274774,1.813036248221179,-0.38863771794198315,2.0539403672084964,1.3941847233659337,g
-13.298896498787135,6.221438345535946,-9.08833601687064,-8.233373493337394,-1.1986749576310634,-2.2419202305395842,-0.31448513345865636,-0.19432690166618388,g
-14.082921099103913,4.050154032457439,-10.300025388699689,-9.635150106219983,-3.4145288943446594,-3.8720426315234837,-2.549451856639108,-1.5358429477164695,g
-13.669140753041152,2.482674796894178,-10.372410599128747,-9.856513467411398,-5.070354724906309,-5.041424560349444,-4.485102344802479,-2.563817377790295,g
-12.339134176614488,1.3148801391762261,-9.51379499016458,-9.101325283749249,-6.69633086914836,-5.755213835313014,-6.113368744291833,-3.3988862750059994,g
-10.598909795813563,0.30373810032639037,-8.150743085231051,-7.768476625943658,-8.746301025797802,-6.169061644720594,-7.49591362576494,-4.232579964854582,g
-8.906748233236044,-0.4303804006403209,-6.6516036329206445,-6.227003703776853,-11.01009381387046,-6.3757786187665175,-8.610277628977034,-5.164558140607483,g
-7.485221450377954,-0.48137567187419605,-5.153175461531202,-4.656863640154244,-12.55643230188868,-8.07642653546033,-9.275558413777263,-6.088968576102636,g
-6.2939310307361955,0.35509746320734464,-3.573113661332839,-3.0250490978956095,-12.579060774711063,-8.176603927090294,-9.211901724059423,-6.705876721032164,g
-5.116359625285179,1.9162905980346572,-1.71510795806445,-1.1693664922344174,-11.173349737669852,-6.418922091988117,-8.15326156515489,-6.65103969766637,g
-3.703643611415714,4.009564610504415,0.6085065001359137,1.0678333806576312,-9.006757386933744,-2.7767382018037825,-5.930100879494641,-5.650860445651345,g
-1.9447346188674004,6.607040649186539,3.431071734383656,3.702212410276785,-6.4212995931165695,-0.034665848516623,-4.817648791839397,-3.621663621881757,g
-0.001228108761319824,7.169364347853877,4.475014943378273,4.641103382573812,-3.254945838217948,0.5822925369970882,-3.4000080940976227,-2.82231354142982,g
1.6940039245756604,7.636746047933331,5.248628510810404,5.215671182646052,-2.066571995944784,1.2278927560842727,-1.7524261239367647,-1.8763084174851656,g
2.6201169726995253,9.844697980066808,7.238392434765766,5.403730560576605,-0.7113198968953421,4.043587817889355,-0.011286409014351762,-0.807706706243005,g
2.4458433984286625,11.076096112927795,8.049178251213977,6.147288988037766,0.9077851779216177,6.011740815759316,1.6329832106469724,0.33987517329246125,g
1.220523972318354,11.250861472655188,7.691708252831367,5.875533344514592,4.147511532062342,7.080423067176648,4.571523036702803,2.913113486408811,g
-0.6710582713483422,10.41986091314561,6.484694900158045,4.956789320006485,6.489435933082232,9.227818597982502,6.550498946206129,5.078517756098509,g
-2.7923004597309946,8.794723098558258,4.814071937374906,3.8054612568815807,7.764458990134521,9.823781469175605,7.6724049411578195,6.925982991069574,g
-4.992090727527957,6.650937389890136,2.8275700587449526,2.5483093673016954,8.024214923634696,8.901974470383744,7.894886987825044,8.293368734143005,g
-7.518523200973836,3.967851538675631,0.28911064888336496,0.904932627730578,7.296575919707095,6.336493980240354,6.93347825721037,8.747214103298031,g
-8.350208383544485,0.33698897588212084,-3.2108501106066085,-1.571205322609214,5.2019971172093715,1.964276253915464,6.714911239951368,7.833286015079271,g
-9.51932430191685,-2.087819483482156,-3.637341089912082,-3.1636692916307094,1.231143546878689,1.3986575717583414,5.527333155989299,7.545165984158913,g
-10.687012578649732,-2.6152708785800587,-4.089940608979559,-3.534626603609767,0.7133288366573911,0.7775818927420957,3.438467923583924,6.556658172319378,g
-11.36837388437169,-5.014128211491824,-6.064832534100764,-3.8793895762366644,0.15974635898554385,-2.0334287916769433,2.9551221858463412,5.21640958115627,g
-11.183206640128583,-6.526621061143111,-7.101820326685873,-6.340979165635212,-0.3619989462055983,-4.008313491326667,2.5086992465951434,3.934619866265092,g
-11.472335798324682,-9.108059247103492,-8.475599920348856,-7.235469792456587,-2.3089093124604867,-5.085270357252147,-1.0587069183370048,1.5366207814611061,g
-10.30390578629089,-10.263607790915477,-8.262118720990365,-6.842920377272596,-5.60690395321548,-7.217618666865819,-3.4465697214788227,-0.23877498989615537,g
-8.276646523786,-10.140334186765969,-7.008321985810935,-5.72820366574485,-7.790640864236958,-7.6211589803431155,-4.868234626872867,-1.7198414093908643,g
-5.768904210364395,-8.88841181410338,-5.086191820777129,-4.238657126372365,-8.591255979664798,-6.375443623075524,-5.382817803424226,-2.935597266818084,g
-1.3528643667363662,-2.890391981822934,1.2464698125654372,-1.2186311458991572,-5.05356572578267,-1.0910352877851728,-4.567833348161767,-2.918131529227886,g
0.3316311573463608,-0.45653736378456794,1.6878148116348335,0.3680357681101657,-2.9826627602534757,-0.45762726148251387,-3.4202189645222725,-2.6755220119775425,g
2.0118300135745812,0.07399121580591186,2.1554154805373775,0.7331867211662176,-2.4669076728975194,0.2547402055757553,-1.3733667401068252,-1.7366972860894543,g
2.011830013574581,0.07399121580591114,2.155415480537377,0.7331867211662172,-2.4669076728975208,0.2547402055757553,-1.3733667401068255,-1.7366972860894543,g
3.3887375850703085,2.4098915109086456,2.60410140823856,1.0949656492591413,-0.12025713261620319,0.9867370881085789,-0.9325353429337369,-0.4438042302239859,g
4.369218975992236,3.855715100151761,4.558356284203848,2.7349844163000294,1.1223175973970838,1.6796141089409524,-0.5271797778762931,0.7975896805732614,g
6.516149001179244,6.59868265537709,7.431696004374691,5.0276113639955415,1.3988872102416376,2.275202739003918,2.667508536804069,2.8888704181206966,g
7.880073090446253,8.32698589713101,9.280253509576621,6.533862449963406,3.3880491697010164,6.682327322310433,4.710864760094788,4.4384649774227,g
8.793607495135408,9.077077791511778,10.39623256319982,7.527995291793571,4.935992134801868,9.086922956024322,5.677385571508618,5.660825735650583,g
9.325023114929152,8.711325973304762,10.85067293946315,8.05791680043604,5.733852052290648,9.464596224884382,5.559802862020959,6.550977134284781,g
9.313833928960243,7.186015332436443,10.50481276235867,7.943678494945931,5.392071945019002,7.85609338843886,4.280733524226275,6.85843064179033,g
8.623493634972458,4.608015146913841,9.239049556485995,8.769010172493298,3.839426011976518,7.439359502359309,3.7959116288802024,6.317783869290765,g
7.354312780939443,3.688218734376279,9.41383886196068,9.271243922132808,3.570084658687018,6.521535343901261,2.9722350828584947,6.555708728010932,g
5.82815780424105,2.3682783361035,9.268119456264579,9.486625864754687,2.7009800168545377,5.24827848255469,1.8196529765280836,6.38625260375966,g
4.376691615256432,-1.05736851866321,8.873339240799623,9.47191855441511,-0.5986764313106482,3.7201780967479707,0.361365838637835,5.76574310722909,g
3.144353963709629,-3.731055481944304,6.761610088099135,9.301097300821985,-3.0817408692328803,2.029372627114307,-1.3036797167869953,4.7497639138148475,g
2.0899246928451083,-5.740144185603151,4.987553633478355,7.7194377771543685,-4.467994429662708,0.31923947377506356,-4.237034779491419,2.3835639311050505,g
1.159008148074894,-7.4011864168762305,3.4838359317903143,6.317426792397567,-5.176914197912349,-3.370463410823755,-6.478112145611183,0.2944586681094378,g
0.42862415145543425,-8.788021373181833,2.273838686087366,5.090447551521213,-5.7462684835409705,-6.025885328096827,-7.949437869069406,-1.4756589479670903,g
0.08163788031173543,-9.743781561591664,1.4691953987618143,4.1152917750614595,-6.351246614007406,-7.445672878531927,-8.624842485418466,-2.909748111388061,g
0.27097423795060693,-10.211274770973146,1.1483908239589145,3.4861063152178646,-6.969570664250339,-7.59313719315309,-8.582033504428,-4.003874023122558,g
1.0336208600909536,-10.252970510911902,1.3123706907806652,3.2551490433143755,-7.592532337526158,-6.612898045515462,-7.976046691035336,-4.76168953857526,g
2.316765529419821,-9.793944599178555,1.9558640735755612,3.4293498137046483,-7.984941359298882,-4.7030405558466875,-6.923852785747044,-5.156136500313933,g
4.037579922710906,-8.649271593173033,3.1112391386871296,3.9866793947715884,-7.5695764675907,-2.001191186854989,-5.4354190676801455,-5.094570075855486,g
6.087636059320192,-6.846573542855333,4.776253869175727,4.860650754300504,-5.946864359273113,1.3969036188114974,-3.4898610350591284,-4.473890181167743,g
8.293163037560715,-4.685052363199152,6.811259078425012,5.908789973363977,-3.3874169682254185,3.003564904209189,-1.1752057935460891,-3.311851324922175,g
10.409917688525997,-2.435306808681889,8.931763232726258,6.9340971540697485,-0.5239333890613682,4.707777094289964,1.271143106847905,-1.8047821373737694,g
12.193707898127242,-0.19689386602087336,10.815557791993514,7.783264838571478,2.28133508126231,6.289895876351981,3.569141182571863,-0.21398804506238855,g
13.499780957460299,1.9238808056829924,12.246620922829575,8.44229719095036,4.979148125536449,7.491228374957288,5.54357627983436,1.3101511012479627,g
14.321288484692824,3.7523608008519993,13.193696290813515,9.017396397540965,7.4475171224744185,8.116693664049063,7.178750835359932,2.773249379379641,g
14.72506196141291,5.2381533408187435,13.75108862581225,9.589338583177732,9.452220427097622,8.105696625317776,8.538128423601771,4.211224111486059,g
14.744707656627636,6.459191028310338,13.970590008775948,10.069242389063486,10.89846880015077,7.500280112627972,9.617789096120564,5.537425735713742,g
14.344091763807151,7.309104361574083,13.743375508197232,10.205216106059392,11.751158865067916,8.161515610719531,10.262177862236367,6.509117044508493,g
13.497155808078483,7.4029206098688105,12.879635029596553,9.755212959070182,11.758599841966227,7.520907725210799,10.23293071756868,6.833315358757875,g
12.303497919051367,6.4599768492653995,11.327803066855079,8.684725301782725,10.637748687307283,5.395469467189066,9.387540927858664,6.333799402294559,g
11.015528482885712,4.625861624012965,9.306058607762662,7.222864743549062,8.545087561704603,4.2265721757137,7.806633770338363,5.06780770617655,g
9.94254226745825,2.2948721771289433,7.212909167339565,5.731426605199691,6.0096950450340465,2.263306638786587,5.7491894131008054,3.2931833332867897,g
9.31617977996923,-0.19071393360754385,5.420983140989793,4.493650089995181,3.366056067909075,-0.044173809515726116,3.490732989389174,1.2845729501890353,g
9.22627333755,-2.5053585077640586,4.142866325579008,3.5893880486156755,0.6092110544435652,-2.164824258660827,1.2122631820246732,-0.8463699020714401,g
9.657763921190613,-4.22315428109923,3.4348653287749897,2.9466650016042237,-2.123304878019669,-3.603585797763759,-0.9692469009124756,-3.142197584478718,g
10.56711037324303,-5.008995868122558,3.27409580681973,2.5044989420793846,-4.304640830091124,-4.024215555566242,-2.8990704369624125,-5.6112389015171455,g
9.588528812783776,-4.844251482651858,3.629495624104325,2.3241463991675864,-5.408935468072995,-3.3270088732817342,-4.34102053572383,-8.072112179652457,g
8.81019583883742,-3.8595881294185093,4.485439712287642,2.547883510024189,-5.254704914407461,-3.44131830657985,-5.041623476930365,-10.192870291650856,g
8.30021858543121,-2.0442964323214876,5.808931695945352,3.265057373712512,-3.856385423361324,-4.3514479209047146,-4.847181457034219,-11.658242006179247,g
8.008095197785412,0.6477491385418505,7.495324929024667,4.424927587043763,-1.3190238427301275,-4.163351407502374,-3.7840760323442795,-12.296669853726478,g
9.69155145654393,3.975065716405384,9.356778528883783,5.857387765552337,1.8871305743177618,-2.9213111530785048,-2.0480673364171538,-12.102981735643171,g
11.85442332977085,10.606111677161682,12.72626732033194,8.688997490149823,7.087483430493791,1.4125476989656771,2.3557072374040486,-9.772521578441724,g
12.132101715991311,13.201239597125014,13.840206614384488,9.724139899388483,8.541625734831745,3.5086149100287956,4.5507000858896065,-8.002145832568583,g
11.757901389531764,14.915944061712093,14.37070702029023,10.366330990123338,9.72326147430066,4.881874435265837,6.46868825422536,-6.027749120217938,g
11.757901389531764,14.915944061712093,14.370707020290231,10.366330990123338,9.72326147430066,4.881874435265837,6.46868825422536,-6.027749120217937,g
10.757347040419281,15.46166149332,14.296837524354,10.6305803442287,10.801913099625107,6.9748005338120125,7.901684055601313,-3.965919408996366,g
11.665976353957321,14.877563481242262,13.78804200511758,10.636263595084072,11.610461303430077,7.291217348126994,8.689863114155619,-1.9251993984947553,g
12.67940677438514,13.563756340975868,13.153228674690657,10.571130329638265,12.010973959151745,6.000311294944693,8.80271997258674,0.025337477533902586,g
13.917092897316943,11.92038658066981,12.667033435820988,10.60900021257141,11.930535473777235,5.771056341895633,8.347197175052795,1.8707634360618974,g
15.340254691028402,10.127932264712424,12.40428343076052,10.799598956639043,11.181354767542956,5.007104901293678,7.474050938011445,3.5727854192284285,g
14.808628146857808,8.306929243701893,12.202989217673531,10.997465507357544,9.65702554058429,3.7952076972477604,6.260063644863111,4.962588539700053,g
14.142038902975475,6.6264076201653195,11.766070884881632,10.909025021711571,7.672832846827655,2.20517618333996,4.668115731770657,5.748991577193605,g
12.998869203803405,5.126789435861619,10.835770575571498,10.256378996338265,5.751462855972155,0.32420176717258187,2.6208131726749873,5.66963008116993,g
11.287408570292381,3.659963533823926,9.349964580436493,8.946077102878416,4.069217813977783,-1.7002325421764866,0.13576501803562788,4.6526903359451195,g
9.197918229058144,2.1709123164675193,7.482600509331834,7.119441072060771,2.4303055474618693,-3.637123249235534,-2.580250703196866,2.8606100243715176,g
7.044650231039762,0.8673679025044795,5.527198065734725,5.066619421445213,0.7685733978101876,-6.97435165609875,-5.161958887615904,0.6106391800698351,g
5.065689502454541,-0.04411918758986055,3.715743491700364,3.087870176837131,-0.6859208434130079,-9.032046903718657,-7.232889671890758,-1.7605635126726997,g
3.3380211647828313,-0.6223741057488712,2.131381814280663,1.3867942943408862,-1.7683916093808834,-9.662118752759646,-8.564174192804911,-4.025227744721289,g
1.8334881797673532,-1.025711761949608,0.761235607219571,0.024024887713491518,-2.5318822751516863,-8.919242850219032,-9.136284791274589,-6.125381631987834,g
0.5229149566227205,-1.2511594120034164,-0.415459045648384,-1.0677952190820024,-2.944025792271729,-7.045671089227677,-9.0872322017812,-8.120313027175882,g
-0.5610798993290134,-1.2426972040927518,-1.396943615061812,-2.0077391079087388,-2.7947302084957806,-4.435936915896335,-8.610115362901562,-10.054025645816157,g
-1.321632677257568,-1.1142749757675539,-2.1602722440977686,-2.8579687529687576,-2.0813237032991845,-1.5367216281597733,-7.862834882671234,-11.85388117320727,g
-1.6407564894586426,-1.025962497862871,-2.65154499157896,-3.5590435376245173,-1.203294786198502,1.2993189039532633,-6.923988539705425,-13.339159155407398,g
-1.4578826037071004,-0.9354431963015621,-2.8082624944219865,-3.9773584026682514,-0.610534723922736,3.8810624176150412,-5.819642741759949,-12.80160815331504,g
-0.8543488475893233,-0.7177958389330164,-2.6520740966480383,-4.0457441778266725,-0.5156446563861427,6.090295407543418,-4.615431011209452,-13.174980974706717,g
-0.07750108663989144,-0.4698457566107404,-2.3684992221887446,-3.8865265327774,-1.076798508707082,7.739267230672633,-3.4980183312774606,-13.029225495022995,g
0.5465135872783405,-0.445430132980252,-2.2544124285903857,-3.7996610335439187,-2.497884162911496,8.548726685829264,-2.747471411129769,-12.628093954637674,g
