Fz,C3,Cz,C4,Pz,Po7,Oz,Po8,Inst
-11.932177829339015,-11.61214049850247,-1.3188638545927405,-0.790250356288948,-1.434491980584597,1.7301337783634274,4.914026872519409,1.2251803503201892,g
-11.932177829339015,-11.61214049850247,-1.3188638545927405,-0.790250356288948,-1.434491980584597,1.7301337783634274,4.9140268725194085,1.2251803503201892,g
-11.932177829339015,-11.61214049850247,-1.3188638545927405,-0.790250356288948,-1.434491980584597,1.7301337783634274,4.9140268725194085,1.2251803503201892,g
-11.932177829339015,-11.61214049850247,-1.3188638545927405,-0.7902503562889482,-1.4344919805845973,1.7301337783634279,4.9140268725194085,1.2251803503201892,g
-11.932177829339015,-11.61214049850247,-1.3188638545927405,-0.7902503562889481,-1.434491980584597,1.7301337783634279,4.9140268725194085,1.2251803503201892,g
-11.932177829339015,-11.61214049850247,-1.3188638545927405,-0.7902503562889481,-1.434491980584597,1.7301337783634279,4.9140268725194085,1.2251803503201892,g
-12.540469051849655,-12.423014462586076,-1.2107921454962625,-0.6038430997744622,-1.5958109441197252,1.461587194566476,4.782022589318588,1.4214283290200516,g
-11.98131642066544,-12.241793418697718,-0.5455782963793336,0.11903718588702494,-1.2888437571407032,1.4588614528933044,4.456426505360553,1.728307556331942,g
-10.617158476260908,-11.31603998414958,0.5191413173025942,1.2419017411601714,-0.5647580216376931,1.6911209488326135,4.238688642144011,2.2912969691767517,g
-9.071159306593767,-10.168163649016105,1.6052357014318417,2.401162101385624,0.30696542541544375,1.9769037578830673,4.310240086402215,3.0941754728648494,g
-7.864166309428995,-9.302657946059625,2.339421249646322,3.223310779663894,0.962958336723689,2.0922340797196046,4.580277720157713,3.9243949191859464,g
-7.145882730823564,-8.898759828173628,2.5694527311126456,3.5541558408799547,1.1541201620264594,1.9061402470678677,4.78638557502316,4.505690920340259,g
-6.746090526822316,-8.795691921349183,2.3989748487405604,3.5051877006991745,0.8655720077905468,1.4514934705785125,4.746434565767246,4.689836499105967,g
-6.455957123275821,-8.777823288452181,2.03487572135134,3.2940430888324848,0.2563290374160565,0.8762656960443973,4.510775365361426,4.534667952400801,g
-6.217582624653223,-8.80280351583723,1.6129469215162409,3.059364847772957,-0.4961457689141425,0.31029512454396746,4.264649779770892,4.196066275303536,g
-6.08534705073456,-8.95281004831524,1.1431691358267257,2.8087379130330463,-1.3048152464539176,-0.235148624346342,4.095568838598187,3.7460508389499068,g
-6.126492240470173,-9.291315799261557,0.5649259962786873,2.4799145419294213,-2.1817151815913753,-0.8380693684177342,3.884398571321049,3.1065698444043632,g
-6.399909655837204,-9.834658256930098,-0.16867620886301146,2.017742513604822,-3.1734514215777594,-1.5378681691700002,3.437931248639907,2.166428408081466,g
-6.938530637733663,-10.562053983000624,-1.0269975616627487,1.4264873905296234,-4.269271757223142,-2.243904856637544,2.7179183580371364,0.9562634326961741,g
-7.683287076965354,-11.362282352862906,-1.8909561413760112,0.7863230943736687,-5.34670257043651,-2.7745004939578783,1.9299480053793936,-0.2988297846670333,g
-8.488373075159684,-12.043301394110689,-2.621218885073561,0.2055147045773184,-6.220213800303048,-2.9834826429315973,1.3890802228576604,-1.302247041149588,g
-9.25024108416309,-12.490327790535597,-3.1602901303280033,-0.26769062656625137,-6.768115871398879,-2.8547889831097404,1.2858662731485786,-1.8770289301661198,g
-9.99341179284596,-12.769160844306363,-3.5620672276265886,-0.6749172869471063,-7.013126711818114,-2.496828311356117,1.5424618191825226,-2.074256077028374,g
-10.794176461885964,-13.00129647830532,-3.9219243111258697,-1.0836940333764848,-7.08109538682884,-2.066747368069314,1.8616583335191195,-2.12732447013182,g
-11.683693554769533,-13.202657354227233,-4.31072467505713,-1.5306041503615841,-7.110351030672166,-1.6973205716047715,1.9293356009646814,-2.2948321844638504,g
-12.68089898666806,-13.339697342661108,-4.789532075074173,-2.051913813421151,-7.21455042539944,-1.469981822773255,1.6232121461643139,-2.706214115304718,g
-13.844791825803682,-13.478902434445393,-5.434063323615367,-2.720908828108433,-7.4838660860055395,-1.4255774856885135,1.0739054418240384,-3.3149472856337807,g
-15.187129582779079,-13.744461627594621,-6.276287902589252,-3.583970076260903,-7.951209394337482,-1.576209507246477,0.5390365500074891,-3.9766720845090133,g
-16.553426945128955,-14.137749836792969,-7.218546039263916,-4.557802291857408,-8.54271798517022,-1.8955632829912392,0.2031199061918322,-4.569795559752583,g
-17.683051933321494,-14.511102337951712,-8.049947068051342,-5.440783136261466,-9.099942561549454,-2.3058730355011563,0.06412958532509272,-5.056505716172499,g
-18.398361319391633,-14.723187454598948,-8.570929270781749,-6.046680829893582,-9.478060546049718,-2.69894361049366,-0.026678691208677118,-5.456566454441807,g
-18.688588391212907,-14.727132999400734,-8.701741658044261,-6.314206846439109,-9.625544408074681,-2.9924477112222796,-0.23209013819293264,-5.786397202383222,g
-18.638129024679586,-14.518078135590056,-8.4920838338443,-6.301396981923157,-9.585854729751146,-3.1690213585735267,-0.6096000359949106,-6.023781692142598,g
-18.352428883197945,-14.113900956027374,-8.060757923791526,-6.114003214944753,-9.450552738899642,-3.251313004664045,-1.0759156631600946,-6.113847562036267,g
-17.93802474863941,-13.606375349705512,-7.519645741727075,-5.8363665435491345,-9.302949779141324,-3.2390922470388768,-1.4668873993504898,-5.997918842759553,g
-17.45755158615564,-13.119684597575704,-6.915654169129574,-5.48401354099053,-9.166807537949504,-3.08680546951392,-1.6515099134301061,-5.643371190027076,g
-16.887521051404004,-12.683875042892241,-6.236884325726757,-5.008952151048568,-8.998837863362752,-2.759597692649506,-1.6251250986290529,-5.061907661014668,g
-16.202245118081223,-12.249395835034873,-5.503559002252386,-4.387811495684658,-8.762960565007049,-2.3157813851062548,-1.5205394469406674,-4.31509917758796,g
-15.521683604712257,-11.862761932866038,-4.854814949213097,-3.7175044148229857,-8.525579648583145,-1.9271173626973392,-1.5363665830073656,-3.5136391684963058,g
-15.094887243959956,-11.718542517010587,-4.5043177409779815,-3.1832679245155604,-8.445690193031867,-1.8019985482693375,-1.8354863656645208,-2.8077019062860176,g
-15.095289245456863,-11.972988173215168,-4.584420195719847,-2.905720342763215,-8.643003467089589,-2.0622172444834965,-2.4685650694914445,-2.348472679303872,g
-15.486976589182158,-12.592278175835457,-5.0491048082918155,-2.843463998142241,-9.084095542318998,-2.664470293181899,-3.348091187074355,-2.2124858747853287,g
-16.111361579780432,-13.44401834657163,-5.733675513603378,-2.859743838602552,-9.60327512238926,-3.4239228629014016,-4.275784274104491,-2.3290032452192047,g
-16.82416850284152,-14.44172429411518,-6.476196725853709,-2.849255541610467,-10.009974522354108,-4.116215592898611,-5.009310973960678,-2.4805724506486606,g
-17.5059153890494,-13.638510148173546,-7.168439338700379,-2.780133045246816,-10.167573977286912,-4.573067125770886,-5.334744444133917,-2.405405207680109,g
-18.031418970984838,-12.731755974478492,-7.738335770686601,-2.6618775263149708,-10.016236131669435,-4.706253473787447,-5.114541103680055,-1.9472012714783324,g
-18.328652186752027,-11.70796491472382,-8.140502006256439,-2.5296690165901787,-9.578347655143663,-4.478631304824884,-4.314620678537996,-1.1538023417612115,g
-18.47883260823558,-12.608813231717543,-8.44374927695683,-2.4807220963976615,-8.245495034879493,-3.0102131958845657,-1.4643540375953774,0.4636697089706402,g
-18.50715970271659,-12.82503372638783,-8.420511237569574,-2.6605490623351713,-7.57107226523942,-1.9865091564503565,0.11045721975135762,0.8398321623000335,g
-18.570307505274215,-12.925703911427712,-8.381244664844619,-3.0020771438522713,-7.006956178744969,-1.0176842019675436,1.512284018671912,0.9038098519165414,g
-18.57030750527422,-12.925703911427712,-8.381244664844619,-3.002077143852271,-7.006956178744969,-1.0176842019675436,1.5122840186719122,0.9038098519165414,g
-18.73407628793479,-13.007401545020173,-8.44130860589793,-3.5387986178779522,-6.638687338678284,-0.2753983206710964,2.7112118194224437,0.8248367433837567,g
-19.050305702250576,-13.181903886826039,-8.692714993985174,-4.300661373154133,-6.533973508567075,0.14474924990601137,3.785570148077703,0.7544888550263462,g
-17.31593583832446,-11.445507945500433,-9.142577013685594,-5.259712542154113,-6.6971220760501,0.22227451006886795,4.779786403405653,0.7060612935973932,g
-15.539293019372858,-11.465717371372858,-9.722711334782755,-6.33368716030645,-7.075616817644077,-0.02409521082994126,5.5841483999503865,0.5547945074144488,g
-13.796558135611093,-11.487239866421106,-10.356776790380486,-7.444341406590121,-7.622497218934458,-0.5769846117237682,5.937903390446284,0.13202541342904314,g
-12.175492343749912,-11.511727533924189,-11.001128958606426,-8.538881169087553,-8.332153124983865,-1.436894930938964,5.572190151789904,-0.6699833408421292,g
-10.683924936000347,-9.894239771648643,-11.634176412700837,-9.554138166004366,-9.207958471333281,-2.5939274201709415,4.411970879979056,-1.832075040463092,g
-11.359411131416632,-8.401580874237677,-12.240133057815786,-10.399774374664371,-10.211648786688178,-3.9672704553630522,2.6925678572668326,-3.1899005710545874,g
-11.837571880325614,-8.747028046334487,-12.800989636908938,-10.989676920590949,-11.245381510679097,-5.37007747856229,0.8763832156889318,-4.474072779086581,g
-12.066344576847646,-9.030559878874852,-13.268167846594931,-11.263379012226792,-12.164163698099323,-6.554979137274354,-0.6003067222945038,-5.414664998541972,g
-11.995783745520203,-9.179427795066847,-13.536542773803387,-11.177635877603596,-12.815273875586442,-7.326902871929259,-1.5673186146746594,-5.866461545357112,g
-11.563721966660644,-9.0610787614699,-13.486644539710474,-10.72331484899025,-13.113124543666185,-7.643131898473705,-2.1625022677635046,-5.8722406802497975,g
-12.959637712362726,-10.641952305881217,-13.079680782102901,-9.971202024976195,-13.102115823838705,-7.628038141823296,-2.6598402518690447,-5.615051743731433,g
-14.238246878118474,-12.179013301341705,-12.397355431539605,-9.062196794793397,-12.91996139193321,-7.496840329341902,-3.239405091804772,-5.289273081390137,g
-15.46398727895774,-13.728564578230982,-11.576599992375316,-8.11650377647555,-12.666829873671784,-7.439581776269317,-3.8703129983362246,-4.971820425387485,g
-16.663152442444336,-15.259514136166018,-10.718582927003835,-7.1644272129729725,-12.312722787802716,-7.530558446772301,-4.360195169502699,-4.573562674105233,g
-17.836802304254707,-16.687925350988575,-9.859959721239509,-6.17996953512768,-11.744518624786746,-7.7134155406444105,-4.507214922418998,-3.9106904272930336,g
-16.87503026689756,-17.977819544431764,-8.997616131905318,-5.158451912625024,-10.896701295887528,-7.874170750296072,-4.247542966483044,-2.8635919318746983,g
-16.04178803210095,-17.369762230612917,-8.120935948466428,-4.144922791682958,-9.83740238449768,-7.953193453156233,-3.709308152271263,-1.5132475893900055,g
-15.279035874133479,-16.74079456795198,-7.244273234210446,-3.216176938991937,-8.754506025681367,-8.00452668444481,-3.141573641636451,-0.13688840311563116,g
-14.543197507337482,-16.129041615351685,-6.429782960723886,-2.45884662105263,-7.8666450146100235,-8.14633212157792,-2.767652677171754,0.9509602536490508,g
-13.873505949900721,-15.649404348663765,-5.7561086102948575,-1.9312380011478756,-7.30157480545221,-8.4440599091802,-2.664872954849492,1.589154238304568,g
-13.310070111927107,-15.359414510448648,-5.2364954720869985,-1.6029303318595887,-7.007757575662855,-8.83078809191255,-2.745770755055339,1.8395868314311066,g
-12.791315052176286,-15.12760754494506,-4.781358704475382,-1.347101925105535,-6.787803616999533,-9.13376539362931,-2.835119656633802,1.893565514824894,g
-12.205909894572166,-14.742954258811006,-4.2696501871929895,-1.0382490565148677,-6.46075386502242,-9.186509491888994,-2.78325974516734,1.909596297768751,g
-11.5194728215256,-14.140634687385225,-3.653923209610222,-0.665207513299572,-6.013920571711581,-8.944943303421544,-2.5560276844189076,1.9156788887999199,g
-10.78788543263556,-13.433105928113568,-2.9830446663330075,-0.32960485084829394,-5.594902263497538,-8.526581346195739,-2.2572960467037873,1.8374619277387876,g
-10.079628036198429,-12.75023481900538,-2.344283665862554,-0.1450764119726285,-5.365725778800723,-8.140491107707275,-2.0601851817578924,1.6087733595756806,g
-9.46148867800185,-12.1598122294521,-1.8144324438511668,-0.1630933528053971,-5.375610902533927,-7.949530172190421,-2.076808249530889,1.2604990271010603,g
-9.034030133555362,-11.72657835101926,-1.4514369692934623,-0.374185017590744,-5.548386390509175,-7.962850539526587,-2.2619365832265053,0.9071710295611153,g
-8.883242703261043,-11.511312042917927,-1.2862882680076961,-0.7276215808057922,-5.749430944385031,-8.040455122406186,-2.43799280597617,0.6467787605789322,g
-8.983676188010097,-11.478177804014464,-1.3094084612074437,-1.1442405843217431,-5.866819565408093,-8.00169688058661,-2.4251310322898743,0.47878031400654947,g
-9.219239842697084,-11.511404151995137,-1.489154865041617,-1.556715669430987,-5.875223019910555,-7.747280873130654,-2.164395425143266,0.3305054645023668,g
-9.508310417637997,-11.56620969439376,-1.8096621115063585,-1.9580358451767446,-5.847447860481004,-7.306655445122989,-1.7385595601487052,0.1654721219084166,g
-9.84194283348889,-11.713036608189546,-2.268048286815902,-2.382701244502498,-5.884350236231622,-6.793389167782069,-1.2944610373126806,0.05533240498651343,g
-10.194919843577528,-11.993876725520256,-2.8318521679016766,-2.8281426647244254,-6.015131157864482,-6.315090820759478,-0.9409686663973723,0.13610713262029428,g
-10.478807758769772,-12.324296283712457,-3.424389778873464,-3.2220223485368735,-6.1725660928873,-5.900748277065313,-0.6907138164169451,0.49144252484779294,g
-10.602179937188021,-12.576691708937611,-3.9536450419469302,-3.473934577809408,-6.259363133082337,-5.487437564397142,-0.4706135696298272,1.0754768747769878,g
-10.498047083341959,-12.65921440324243,-4.323791937927526,-3.5226366930603055,-6.205843314121066,-4.968106830602634,-0.18374008897397548,1.7458847387601897,g
-10.063571942250613,-12.454065716316943,-4.412997212375796,-3.3185736239916173,-5.954171692839706,-4.2601270089882135,0.22739403765449512,2.380042280431044,g
-9.163180779010673,-11.787603438963625,-4.086255008799194,-2.806144152104493,-5.429523556893986,-3.343015049832256,0.7658508035412808,2.977639902281356,g
-7.760481306502418,-10.570563580670996,-3.270937398424208,-1.9653078102473205,-4.570591117848395,-2.2497151564824063,1.4134888838116262,3.6581676543975683,g
-4.097827362510274,-7.029792629350963,-0.45377384917988356,0.413593739043668,-1.965431454324819,0.20678632156912496,2.988391671032749,5.629915678825908,g
-2.2120707855754675,-5.046930098055704,1.2524067501894485,1.7278026596386051,-0.44050235580101005,1.4062751366817707,3.845010920515647,6.750290058801785,g
-0.4275685506232663,-3.0311353154696596,2.9623405257891733,2.9906649912088823,1.0506456234685042,2.4786826575099687,4.640618052103049,7.690829341769588,g
-0.4275685506232663,-3.031135315469659,2.9623405257891733,2.990664991208883,1.0506456234685042,2.4786826575099687,4.640618052103049,7.690829341769588,g
1.173695040371895,-1.0842558404451625,4.559073362680733,4.1164734455035035,2.39769866274356,3.383810313949309,5.292169364427208,8.323434517175656,g
2.5281893065556464,0.6742532084869917,5.968922571912868,5.059177221741138,3.554115593484952,4.133599349332916,5.7640765555171685,8.658117304185208,g
3.6348790162770896,2.204233515024156,7.168939838624316,5.834762530058762,4.541664392843562,4.77536080590608,6.08122592372783,8.79219353886603,g
4.514509498345406,3.5219455679118723,8.157598871744044,6.48481395020278,5.399317771384803,5.358259016892114,6.315447132813228,8.834254025618048,g
5.154764936151094,4.608291613507716,8.932534502352635,7.029804017606777,6.133837934997965,5.904316950836409,6.55395181392997,8.867980662181832,g
5.56488533049479,5.446562646686834,9.518921363154494,7.48842594009667,6.73764030521766,6.398646622361709,6.858305481181833,8.952368171247482,g
5.851032685558964,6.129962064908279,9.995876233144024,7.921581901418281,7.235379704138286,6.807028657313675,7.236709162827215,9.12373568266609,g
6.146141891909382,6.803841840092457,10.448314814048715,8.402599990052959,7.6720395475115994,7.113437463912156,7.653050869301893,9.385494577891613,g
6.468507287828973,7.481932023273167,10.8866744751659,8.935264608194743,8.052383084583997,7.346074163295826,8.063651052322449,9.696685585979884,g
6.7275183247496555,8.023635693144662,11.241164975602823,9.43812723096684,8.325967031537372,7.561082740196193,8.445215236193349,9.975721724905902,g
6.868044817019554,8.315403581652237,11.435948754763746,9.817417358100897,8.44328702601746,7.792945932748313,8.792356295814319,10.129045521379293,g
6.92815017261694,8.376868090666592,11.44393687025538,10.024544179557191,8.404778856097575,8.01651400614525,9.095108024185055,10.096606004365713,g
6.94512163722707,8.267810503367054,11.275778762049015,10.04343753985341,8.250817652860228,8.154024061740047,9.316801763151197,9.882984662257504,g
6.8882184200958125,8.005195966330524,10.95807160518546,9.8705222419451,8.031848619807658,8.12051239584504,9.388682536524335,9.545713206880004,g
6.711402618735025,7.621671271980027,10.536477501297064,9.52914820218557,7.796880695583472,7.877671179245587,9.23837851535603,9.152774090078683,g
6.401038378678335,7.199650409957367,10.064837522920865,9.067856685177414,7.578920272859293,7.465430698962541,8.853606569799226,8.753078185424243,g
5.94323400126464,6.7742746364965,9.565685414489092,8.518946206564523,7.369793941762479,6.98755003150808,8.335990740960861,8.380811675989133,g
5.318256951425299,6.285153548135408,9.019051671896449,7.884354792148289,7.12972112990194,6.550323244545735,7.874580203430464,8.066891181822296,g
4.568469626229863,5.697493775028446,8.404693513302478,7.17965124216547,6.840239029748806,6.194763749235756,7.625532835452769,7.826192417955606,g
3.801891673563231,5.09504551001986,7.734769749193973,6.457299414136349,6.528260124245563,5.8810482526339225,7.587174775771606,7.632927805476929,g
3.0732134492506793,4.573284583633697,7.032798655156907,5.758360182147909,6.2198512047428,5.542888476626741,7.591368119557549,7.424115607928715,g
2.3177178993398764,4.111081794477942,6.310139323571791,5.072274599025435,5.892660941818922,5.163423783575195,7.437484784148606,7.142477624992189,g
1.4615956925156537,3.6380048109829426,5.587294757337251,4.379967348290604,5.499120363914141,4.804063455920803,7.0607505937246255,6.781586341728156,g
0.5483388864754982,3.1634537801134828,4.909824545892954,3.7113500085348354,5.01761322748324,4.560233814594338,6.586760023093996,6.385501258104145,g
-0.3088382965444372,2.728580287193727,4.301394513962646,3.115686235172275,4.448624086605625,4.475387890280558,6.215845507354265,5.993116333916705,g
-1.0627210443327677,2.2687958440077933,3.7039961140417033,2.5829268776776475,3.7689358040004217,4.473409795747962,6.023048492471885,5.569209903613091,g
-1.761255674824607,1.6346878934006441,2.9921794107224984,2.0287997168257332,2.921040117204857,4.363331763162879,5.840471403503505,4.98864559529418,g
-2.4833226058745055,0.7342475250277462,2.0496769182785344,1.3531930917111137,1.851892345799802,3.931529270836608,5.342747137060657,4.111094936520682,g
-3.3150309225792243,-0.4347829016834862,0.8272690452474774,0.4918015590860508,0.5503284905878372,3.0718849283928753,4.296637538547943,2.906803600051977,g
-4.348597589348165,-1.8597877021496445,-0.6455764033798703,-0.564130513516862,-0.9379084157102568,1.857645675422789,2.777109704492568,1.527880581902005,g
-5.607668284713567,-3.501097266538527,-2.2683147134189747,-1.7500794811159377,-2.5055109354895633,0.49032930232213057,1.152323479877514,0.24256468319925378,g
-6.974657169205483,-5.212356705981717,-3.8994957293472923,-2.9356599673501407,-4.009246914319896,-0.8369481680437957,-0.16673860286073355,-0.7343410202004922,g
-8.269019343066546,-6.798529848492521,-5.424350519651508,-4.001069749311064,-5.345970873501345,-2.0486760040035668,-1.0029106179790006,-1.378573387936911,g
-9.404278897255342,-8.181861929388194,-6.806733885662152,-4.9223498371722645,-6.516394315573436,-3.1858736137924932,-1.4875803079391512,-1.8439916000641077,g
-10.409052895979665,-9.415197029262888,-8.055176533230835,-5.752053755053817,-7.587618273427154,-4.313563770915349,-1.8937473503119588,-2.3120038700456855,g
-11.306781309795966,-10.51518732934981,-9.141194532385494,-6.511845928345386,-8.58404288986049,-5.426280200021727,-2.39111721042822,-2.830671974573902,g
-12.05927678559949,-11.393122701844003,-9.982661488976989,-7.139176020320373,-9.439427038355658,-6.427637126255185,-2.9291228757402434,-3.276569103876948,g
-12.633889408105095,-11.986376982613624,-10.512088812216982,-7.546798539228808,-10.063817866834604,-7.192073257659286,-3.326817087342693,-3.4705667271357257,g
-13.032794163416597,-12.345517703280724,-10.729116266960762,-7.697473448476937,-10.430249341657936,-7.651944579669156,-3.4708741450764413,-3.350730437361886,g
-13.223570941639426,-12.528656957148492,-10.675664954361537,-7.60918145564928,-10.582055926011043,-7.834534186397725,-3.433628804233146,-3.0493625770999904,g
-13.125537899806796,-12.505836642562969,-10.392675669550396,-7.330404963034786,-10.58036546614837,-7.819645910514902,-3.400360303069129,-2.79573167283233,g
-12.722601417157012,-12.246755678705544,-9.92391685277141,-6.938872747955687,-10.464790109841662,-7.667869321357102,-3.4833990950113245,-2.7271048785273098,g
-11.56374463276376,-11.40507865855142,-8.758847710943469,-6.203108008564079,-9.952290986116925,-7.059578647157517,-3.6690087654898007,-2.8300568689050416,g
-11.133051268157313,-11.07729662398599,-8.301703427190267,-5.996591549717052,-9.624628512975297,-6.753075541204997,-3.6042823520522718,-2.789366443440853,g
-10.92180080607055,-10.942431659837927,-8.1048382902484,-5.965846717290007,-9.393628461541928,-6.645909529814901,-3.610877581206792,-2.8052133761874023,g
-10.92180080607055,-10.942431659837926,-8.1048382902484,-5.965846717290007,-9.393628461541926,-6.645909529814901,-3.610877581206792,-2.8052133761874023,g
-10.955549491761428,-11.094840146781525,-8.253250555060061,-6.170488107299821,-9.409390562806845,-6.862614955025164,-3.9695980479257584,-3.1247185845398966,g
-11.176629558764102,-11.525254193983056,-8.719838247746726,-6.623768852111139,-9.733013475525354,-7.410502492496569,-4.827259505430812,-3.902892831114321,g
-11.455695369552057,-12.053005890145641,-9.369637993136573,-7.245577717723909,-10.272126841476238,-8.183451334127673,-6.042945713478741,-5.0520854554098245,g
-11.715916465340824,-12.476146200010252,-10.05699200669712,-7.903323714728595,-10.847672671578334,-9.036610968454957,-7.244686860002494,-6.257984617794966,g
-12.011041220783888,-12.768226938301208,-10.713404088610549,-8.48950882476919,-11.321182047991103,-9.868449244759098,-8.074403278285029,-7.15792422081539,g
-12.412899934465242,-13.040894318129961,-11.332850497231018,-8.943406132434188,-11.655941814644006,-10.656154262976438,-8.44862515536021,-7.566278802430416,g
-12.858472289805949,-13.353274913069637,-11.907189104766228,-9.23538936752844,-11.892945264021387,-11.43161605117909,-8.624660881423837,-7.588299120991562,g
-13.187472282711948,-13.668742977844298,-12.41709898985204,-9.383817773813904,-12.109949646586674,-12.222515118016124,-8.997410958587263,-7.531984185734737,g
-13.309180160577938,-13.971198044561604,-12.869055720993874,-9.474202949221624,-12.387783997687713,-13.001918413717982,-9.778826399062954,-7.679881089839553,g
-13.254422885854316,-14.2895068544765,-13.290581919242504,-9.600772971579822,-12.759786397372016,-13.681669454251644,-10.823475796258249,-8.094289491361806,g
-13.081568250991944,-14.59364312653435,-13.679458199350169,-9.770003367443415,-13.170869523732662,-14.152288277596568,-11.739575356232303,-8.595476378277093,g
-12.822528222843891,-14.7876524292704,-13.989320229452963,-9.894136911286925,-13.50997584693205,-14.341430095475028,-12.183534449666688,-8.911865066296835,g
-12.527346825318025,-14.843834864749258,-14.177200780502844,-9.891789195248009,-13.70137816797633,-14.257966143435189,-12.102229197178973,-8.882914426992496,g
-12.278427102174845,-14.85152309271954,-14.249385964994772,-9.771605373403755,-13.76060539019176,-14.000429998545224,-11.751783623115053,-8.575320749080356,g
-12.137768357014602,-14.902581915835512,-14.264862499312846,-9.618499361228242,-13.770058612481169,-13.718832723643192,-11.497417798310138,-8.237801831512632,g
-12.139951267062264,-15.017897972053822,-14.317558094738297,-9.532032057568347,-13.82203511689822,-13.536570164034169,-11.551435177621087,-8.126135944311926,g
-12.340136725838137,-15.209670560791661,-14.503340089707928,-9.577281373434507,-13.973930228208408,-13.474988434402832,-11.844235395689195,-8.324423664487052,g
-12.78675312795175,-15.502895466797494,-14.855274441028929,-9.745696543676582,-14.212086025219227,-13.44343050316373,-12.116508282980838,-8.697934097358923,g
-13.422574086563415,-15.838674911508553,-15.291674283855453,-9.941153756893918,-14.439385536076037,-13.315618205097076,-12.138054689144715,-9.008312667507305,g
-14.091267754051563,-16.05764768743198,-15.657992311909393,-10.042448929829018,-14.528714991834935,-13.031566147375163,-11.858812845140134,-9.08680214074685,g
-14.678002211606373,-16.054712658579497,-15.839375887230386,-10.008396938620715,-14.414422769057126,-12.631761003236523,-11.382405136656525,-8.92495986454617,g
-15.170235635174894,-15.86897461539256,-15.812357720528842,-9.895549989225888,-14.118192904078182,-12.193570873377567,-10.831414792137542,-8.633424513148842,g
-15.53660034708577,-15.54724423426108,-15.582223210430957,-9.751831969346659,-13.678256238982886,-11.736670515809234,-10.256237648826993,-8.33523909673723,g
-15.626341903670724,-15.006595356873566,-15.114793404199627,-9.52822887311572,-13.087659065150987,-11.194115462893109,-9.657676939406764,-8.092437542400091,g
-15.267070446367669,-14.135500408802738,-14.365841735357154,-9.131526544562684,-12.330946637368381,-10.480582872457791,-9.062152917633197,-7.9065156864625505,g
-14.42276543841886,-12.97179320809091,-13.354578532126302,-8.541180965147259,-11.456972292207825,-9.594684533177738,-8.548131250896247,-7.75891205555551,g
-13.198672655018711,-11.675639100370782,-12.172137182148736,-7.838533489951824,-10.575919598539528,-8.656524041015457,-8.19133888421094,-7.634290893669932,g
-11.736784742445213,-10.367457179798242,-10.926420340095902,-7.137754397289572,-9.786778346800245,-7.838270980766241,-7.9881609496944135,-7.507351315214008,g
-10.168334319983948,-9.090972051852694,-9.700592305638924,-6.519576646373895,-9.129163939656666,-7.245862847024123,-7.845088652353579,-7.3281431330792035,g
-8.615778687412858,-7.894802858795162,-8.546535364458926,-6.009852520541107,-8.594689538095563,-6.860412208403531,-7.663283984197216,-7.0496444980314,g
-7.148446104361783,-6.835890717866559,-7.486156472714155,-5.57687198951554,-8.158588988585162,-6.593966679957949,-7.4482379319801435,-6.687693168913244,g
-5.751810898874091,-5.922193034642679,-6.529849303315328,-5.15822726364769,-7.810013710900266,-6.4037124096931635,-7.330391752557986,-6.347885758134301,g
-4.416317014000318,-5.1645306522750385,-5.724742851936618,-4.736693349246285,-7.582351511545035,-6.352438101484657,-7.457486880525006,-6.173305848892165,g
-3.2421281340604,-4.67304365399968,-5.171716928303894,-4.3931135741500515,-7.54698535876796,-6.557238360286478,-7.853645842592323,-6.249621161868604,g
-2.37838891334734,-4.575805904596162,-4.949748206114073,-4.245253458898799,-7.737954494207763,-7.074261976198905,-8.385616069283621,-6.552408041016659,g
-1.864542341274646,-4.820359299660454,-5.013722496103037,-4.325557280330427,-8.072644098930775,-7.821618105462109,-8.869594030343574,-6.976322056894254,g
-1.6066919383016365,-5.164759913278475,-5.196597629043472,-4.546952282201232,-8.375068132401418,-8.604953073400507,-9.20836051751502,-7.404603515256644,g
-1.5075227296140783,-5.399138488733911,-5.3251195439050125,-4.787303455562883,-8.492295665708559,-9.224837852629374,-9.428471293831942,-7.754532948477494,g
-1.5395382648873261,-5.489353892408097,-5.323887357159793,-4.972334581106015,-8.378223958078568,-9.582912118430391,-9.600717941383746,-7.9804166795052875,g
-1.6873930808825892,-5.489302834153013,-5.224585891004494,-5.080634329207829,-8.075159531303651,-9.707822715336764,-9.738964318063076,-8.062254557360836,g
-1.9109057316684026,-5.4309698277194665,-5.117257704811939,-5.123942222403405,-7.653663809269934,-9.687842474145478,-9.776721877954826,-8.006949299804312,g
-2.1945153346248443,-5.348395389092305,-5.093788246071401,-5.147328682796815,-7.179882238178015,-9.57383756398311,-9.636232418186639,-7.856916341159831,g
-2.9499176699247744,-5.239569896242332,-5.317083519111986,-5.318767637486557,-6.217734988093311,-8.915790479051505,-8.919880065669563,-7.537088669889774,g
-3.2859000734507418,-5.068029613317276,-5.360318940465199,-5.445271734952753,-5.719995869582602,-8.29142574840775,-8.566000218162353,-7.431457456036041,g
-3.517763671517848,-4.718137512179825,-5.248525171635452,-5.5692781644089475,-5.2267769634145935,-7.540198643855827,-8.31207547335795,-7.320868479630891,g
-3.517763671517848,-4.718137512179825,-5.248525171635452,-5.5692781644089475,-5.226776963414594,-7.540198643855827,-8.31207547335795,-7.320868479630891,g
-3.726567745541356,-4.306780211444365,-5.049504074660758,-5.734934755966461,-4.823379158875999,-6.806803962811048,-8.126423245837582,-7.169911695423677,g
-4.008297596026475,-4.005555112873273,-4.8997250039150035,-5.992193773622132,-4.60381581539597,-6.235342250939043,-7.95900898898731,-7.0149059284553505,g
-4.34352586026892,-3.863256939175339,-4.8838802603748706,-6.318913456133843,-4.595679152310456,-5.905721757775646,-7.819646376892777,-6.961782927513381,g
-4.624840912239279,-3.827958521632894,-4.98265155736907,-6.628560384213337,-4.754432431078124,-5.818410666402981,-7.7827175100763,-7.104073230578929,g
-4.762393222218832,-3.874691419389496,-5.103084943152535,-6.836092929983836,-5.013507280825394,-5.931505617084905,-7.920401614074829,-7.433199174424395,g
-4.708050128446064,-4.002307975818675,-5.132479428132736,-6.889851111764919,-5.3176132241154335,-6.209356426585295,-8.234790338356529,-7.829263353884277,g
-4.435493162441482,-4.150331579235746,-4.993906231232883,-6.767457334262159,-5.626617457588365,-6.6317927937924965,-8.646819366849773,-8.143941541322508,g
-3.982274706692867,-4.240969473093296,-4.700171167604897,-6.487416611810123,-5.923344353041753,-7.1590074074556,-9.042304384002504,-8.300545335223841,g
-3.4812617934036374,-4.292781358220295,-4.357080588901437,-6.115197844966976,-6.214935195730087,-7.703379885719149,-9.335704053663134,-8.327643396737134,g
-3.0648548507352045,-4.390559482285331,-4.083200354708555,-5.71328774873261,-6.496854601742095,-8.153444549119829,-9.507600979739708,-8.30872905522114,g
-2.7441680698965363,-4.549661739429721,-3.9174831831602797,-5.28215373404597,-6.713735571311761,-8.429148125409155,-9.58968159346136,-8.298601780605924,g
-2.445593570896885,-4.705252090038631,-3.8126998726078924,-4.781997833857423,-6.778978379988421,-8.50708074309905,-9.606722933233105,-8.273196897352344,g
-2.147101964732333,-4.821468293562704,-3.700408109895325,-4.209792166895019,-6.633358912744404,-8.39232410594764,-9.52492380544615,-8.145880605841034,g
-1.9034058873669903,-4.896399195302473,-3.535601607412034,-3.6209341966095616,-6.265297039079032,-8.076953208985511,-9.25797978201477,-7.831493579128238,g
-1.748945327134937,-4.854258090543501,-3.296464901327434,-3.0780107397770333,-5.684256876936745,-7.534703335778966,-8.729508681841242,-7.305325398904133,g
-1.658585704156361,-4.559250871108063,-2.9870090587406573,-2.6162623650552437,-4.91243139796538,-6.756945036654334,-7.9372131061904,-6.614898473273355,g
-1.6019540806162589,-3.979699643736494,-2.644033150817469,-2.257106657780124,-4.010189084848564,-5.795484650997876,-6.970615618815614,-5.848718695118938,g
-1.545528957725588,-3.238682023619325,-2.300152422394553,-2.0041708575153008,-3.074940155028858,-4.773385996352112,-5.979222061034536,-5.097896156739263,g
-1.384711971771168,-2.4574076665284066,-1.9238497423720413,-1.8076570952645166,-2.193470970685793,-3.84620023376853,-5.112800008285058,-4.432810933627378,g
-0.9707537242467377,-1.6429966563491,-1.428475520269784,-1.5788869389327722,-1.4120514807774156,-3.132236271012105,-4.4588990394106744,-3.8911465805739716,g
-0.26185050745090954,-0.7814321282824336,-0.7662215707874502,-1.2795703766628894,-0.7642536705159074,-2.66398961049184,-4.014333143567677,-3.47757690401522,g
0.6039258774124023,0.057808559926535885,-0.0025271585586415846,-0.9827230312095889,-0.3055500206199145,-2.402199168004267,-3.722969670464434,-3.1875071644025654,g
1.4228685708108322,0.787406184273403,0.7114670234618299,-0.8255407001841414,-0.10005697256725474,-2.290956638733668,-3.5551794145934323,-3.0441128287295376,g
2.0682775366057617,1.3987246842495906,1.2282650021005772,-0.913699776065869,-0.1815586580303265,-2.2886101124327354,-3.547647849148274,-3.1047040175241274,g
2.5062534132499175,1.9161918345424045,1.4728261860809866,-1.2717329478532378,-0.534148655128576,-2.3504622129194273,-3.7564373771347745,-3.4136878413533567,g
2.7501877221431275,2.3168488106802876,1.4630253691621162,-1.8457082968392435,-1.0928824907669685,-2.4123990501017194,-4.1752608727387805,-3.9433542659069665,g
2.8509368581192827,2.5679728890522524,1.2844920105905178,-2.5263300994853894,-1.7534851650363872,-2.421197131491011,-4.706766171654575,-4.583282465035186,g
2.867964835382533,2.682518969188413,1.020397802105596,-3.199401360575291,-2.406529694205945,-2.379692857839731,-5.205325136275522,-5.185402349473358,g
2.787748149397399,2.6602250217426047,0.6818915487750737,-3.810759959267565,-2.9868765601984255,-2.3385887376002197,-5.5387119514575245,-5.620003995304911,g
2.5236085343381647,2.447421640840856,0.22706126746374614,-4.3670150447848854,-3.477443160614442,-2.326836519013285,-5.62673102906159,-5.808811661987066,g
2.0680790140719787,2.069954350577169,-0.32631108171798645,-4.844653685021745,-3.846271025796085,-2.2893043681645273,-5.459038141050375,-5.7372752901427315,g
1.6036390286890998,1.7601755803383632,-0.8263414167956527,-5.122844769632474,-4.001406754822762,-2.101505141092469,-5.098168908003339,-5.453432429833641,g
1.3745449714403593,1.813015468053067,-1.0646756907643717,-5.055548445571345,-3.8470011237026647,-1.6635993084952645,-4.655391274850663,-5.047749753778134,g
1.451342067697143,2.2964812912757817,-0.9384864053054729,-4.6145923267300235,-3.3881496298997673,-1.0056331827149556,-4.238432863622686,-4.614077671640923,g
1.6741401107804468,2.986356603715565,-0.5284232891779601,-3.932089116127161,-2.756056043236132,-0.31282548746851874,-3.8993761515843146,-4.208222016491321,g
1.8046386879205716,3.5820893717662905,-0.03279567677222626,-3.202929780552939,-2.1243071053194056,0.17238254363665292,-3.6168037403489244,-3.825283019566617,g
1.6718577724214243,3.905284581109494,0.35214647999740356,-2.572484182381118,-1.6135825380189615,0.3109586377290289,-3.329544408906559,-3.415903926033321,g
1.2024669030509618,3.914831163566563,0.5080503373325664,-2.1080720557138912,-1.26677031768903,0.15625648747559814,-3.0138494420974973,-2.9513656938290564,g
0.41262411278614086,3.664259040380858,0.40729363324065904,-1.8274541135351872,-1.078728586170437,-0.1119593810610151,-2.753294309457582,-2.5013979250260734,g
-0.6078272209381484,3.2764206137544534,0.0788187657602167,-1.7300651355338779,-1.033260538357159,-0.34670019274846614,-2.720434883570715,-2.237419582615895,g
-1.773233321039762,2.844016792425271,-0.4511740959419682,-1.8224821178341952,-1.1307774250654608,-0.5395859979703996,-3.046104644103559,-2.313264458609261,g
-3.082489728375663,2.298117529661566,-1.1911461753088894,-2.1247893107056646,-1.3954381003514182,-0.7938695742826273,-3.6810124066764764,-2.7106967917655327,g
-6.096549695701925,0.2852392660727703,-3.2339132420592294,-3.254468985356671,-2.4512649050548214,-1.8342007251198595,-4.973430268212166,-3.5502043088859927,g
-7.454003984627024,-1.04547779489613,-4.3209593878055275,-3.868503328356715,-3.1415276940209185,-2.5846086219861433,-5.336736362199029,-3.6129665524709784,g
-8.438487329620651,-2.285146999548464,-5.282788740008554,-4.400995375204122,-3.852093983908054,-3.368794920398006,-5.614113677228199,-3.507905972291648,g
-8.438487329620651,-2.285146999548464,-5.282788740008554,-4.400995375204122,-3.8520939839080532,-3.368794920398007,-5.614113677228199,-3.507905972291648,g
-9.055969959836464,-3.3238077377485835,-6.08743703352493,-4.891504624305101,-4.548570519547686,-4.11057897105479,-5.967696219815959,-3.4535600117890737,g
-9.444686364229174,-4.1559687181314136,-6.760384983170811,-5.416225170842525,-5.187633944477519,-4.778481719557129,-6.429260360199706,-3.5939134807183364,g
-9.719960435442564,-4.756443714930538,-7.3061288088163705,-5.980530553755939,-5.685485693538957,-5.357073163023059,-6.854338106006942,-3.8862303399463847,g
-9.915541785326365,-5.086102029612172,-7.676292295344849,-6.5006921406594405,-5.95543224032178,-5.8063702659673755,-7.030705260737973,-4.14110712431801,g
-10.004703406298963,-5.158907673723929,-7.797360040132742,-6.866866721915649,-5.970223032968254,-6.063914391205992,-6.849656041204147,-4.180436009661181,g
-9.916403867966142,-5.006045566554479,-7.616671381264501,-7.002452757337373,-5.7675041568046295,-6.091074483613716,-6.3948829085557,-3.9834564081255857,g
-9.584919982446431,-4.617518858755323,-7.144916345975206,-6.891104485000859,-5.399795751995775,-5.903508149884839,-5.865767094297115,-3.6917856622368257,g
-9.05719600104939,-4.009544520731589,-6.477369362947795,-6.585223510622635,-4.894361612319885,-5.54419143957012,-5.404023437261796,-3.4714896725548905,g
-8.516091763443804,-3.3046597586688167,-5.75324812549965,-6.175469290207241,-4.250818858092449,-5.034402552431083,-4.9956223118649135,-3.371289113752791,g
-8.120946048262361,-2.6376086324866685,-5.056156784380674,-5.712171129540463,-3.455858605458346,-4.364074407927546,-4.54165805708621,-3.308732548852979,g
-7.836834865377904,-2.0020712486597496,-4.348735444846926,-5.154371110996207,-2.5059214253377293,-3.5258819401579693,-4.001240772819557,-3.166865168302706,g
-7.4784194235980745,-1.290736230742406,-3.5230232777132526,-4.4225191420177135,-1.4370697128286802,-2.546001357522214,-3.432504043754178,-2.877573549437993,g
-6.907218985105963,-0.4756594719156243,-2.518478720738513,-3.502519984323777,-0.32992938335106914,-1.483988931926811,-2.8908618554105407,-2.4215707273585667,g
-6.139318411499778,0.3472402161791462,-1.3890099135417109,-2.4820249696621763,0.7341726777404748,-0.4171486392913499,-2.319367915799151,-1.7916860780791697,g
-5.300929809279746,1.0796852874122833,-0.27858560992832526,-1.4999443462300537,1.7177964250328681,0.5719694254287961,-1.5746442629326924,-0.9926211953134025,g
-4.563532814353167,1.67491369553461,0.6423414439401784,-0.6905602129376259,2.606905559468184,1.4046994213289614,-0.5802261384998181,-0.08125030823768076,g
-4.1029462768353735,2.064889772555932,1.2382966610368016,-0.1586155122594505,3.351684528061953,2.012261657745529,0.5361959596647624,0.8075472487778935,g
-4.012201515984852,2.1561000794084095,1.464625998694403,0.05145623405712061,3.8614653695266825,2.3372292491215387,1.4621124553904852,1.4970586287244594,g
-4.213656998223337,1.9449560709399312,1.3915150184499596,-0.01015968735984667,4.0748785318168625,2.3451784730797307,1.8929850835525397,1.8645278397563037,g
-4.511341546093119,1.5526039124360067,1.1600965284327978,-0.21791612650565031,4.023964933459709,2.059793283510634,1.764299161796337,1.9379708131722015,g
-4.746193847840343,1.1107220564448397,0.9047117651669854,-0.4394769307177132,3.8282889914077787,1.5927049035422534,1.3247151365525653,1.90846800366393,g
-4.847787408382247,0.6972519267548183,0.7206180923096743,-0.5741263535641282,3.64173785213843,1.11434649720479,0.9579006865296785,2.018616883715559,g
-4.741999126315095,0.40940244244425916,0.6822743879251082,-0.5405197774310531,3.592809659272472,0.761118517298423,0.8810142926383948,2.3966676465986296,g
-4.309424807479423,0.37831259042927456,0.8399544931174281,-0.2849228975854026,3.7272184496045755,0.5494975815756761,0.9793817030210054,2.974033377138028,g
-3.482132998903148,0.6302606917701284,1.1806628556055596,0.17144184555980901,3.9808547102243024,0.37514127702889855,0.9276030666491948,3.561503109923053,g
-2.3062145655698814,1.023757158439085,1.6337773697843985,0.7354482356025083,4.238602559301861,0.10509699620043644,0.4914776270168935,4.0177525821925695,g
-0.8467356972370702,1.4241561569761874,2.15393177821694,1.3362431571944764,4.459392123379038,-0.30160676122524904,-0.24820577759856005,4.3652871377797755,g
0.9214823891519955,1.8890641721010604,2.7866189859779644,2.0026556537090574,4.74054235942395,-0.7313494242073999,-0.9303954503824958,4.760986147337862,g
3.078284314146695,2.598724998724926,3.6262879739056735,2.8175305788372667,5.234492876394703,-0.9668421318212562,-1.17348122154413,5.3477997955291325,g
5.657514876306196,3.6491912342994235,4.712532734757272,3.80509155738701,5.996678381022331,-0.8346432029655217,-0.858068249697201,6.102709709300114,g
6.526129908305414,4.984031229262813,5.97271341760419,4.881190609851794,6.914887872525583,-0.34818903076427077,-0.218105599488743,6.801620920873664,g
7.247275152097204,6.4630533779363635,7.244610551143043,5.895005381695918,7.768218242122829,0.2756620188294656,0.32907791812386955,7.1402248555158705,g
7.725000547217606,7.9008098983469734,8.346382142863067,6.703378097058088,8.349078216428747,0.7563276675172594,0.4786185810804883,6.927614438353549,g
7.868218329410442,9.101602450543162,9.170500998316907,7.2475920573187,8.574515529642262,0.9393280379104102,0.2256716868865541,6.205411559327544,g
7.656393391261355,10.000726714092785,9.766458079924623,7.617345217501503,8.541073225695618,0.8869274804866608,-0.184241413504214,5.209883080673353,g
7.171973578468226,10.772984064699537,10.330512597510074,8.033960623426157,8.478868193168314,0.8110496105434466,-0.4609452280032552,4.229390162592035,g
6.515616187702237,11.687297994006904,11.068404239421588,8.711928661801386,8.605504895146177,0.9150430697237006,-0.44753908812133625,3.474785501254926,g
5.68948413563429,12.830267206360526,12.038206950757875,9.700681305934285,8.98220454247902,1.2607680100092784,-0.16729382994133926,3.0269605086780107,g
4.586489097341221,14.043405784511984,13.119535509410301,10.859411697039672,9.495953854311052,1.7434196518826917,0.2359731159626227,2.8486374344540524,g
3.077592876553467,15.116135832337758,14.11749763608355,11.972670863740795,9.969884856015614,2.186515207446617,0.6023338228120606,2.835049774310592,g
3.182142099182941,15.939350966522522,14.883200457832794,12.87547141651317,10.288081243718995,2.492526906709593,0.8639054754038679,2.89341289980122,g
3.241569735198973,16.47943258825587,15.366672769465916,13.501913342243174,10.445928262384939,2.7332272005197185,1.106673793098572,3.0170743763478147,g
3.2333395796535136,16.77963274543972,15.679798105184759,14.0751893717565,10.62950378369196,3.7366506522755847,2.2972887170111584,3.8098180428118247,g
3.1698214542234275,16.693996717839344,15.604177190288357,14.126088826232584,10.783297297495626,4.6425606658207474,3.429234371167076,4.564417025600392,g
3.0694610744427067,16.458438801646246,15.292988200229498,13.946164629819444,10.89257498865315,5.660442556309119,4.761771022832706,5.405610361800467,g
3.069461074442706,16.458438801646246,15.292988200229496,13.94616462981944,10.892574988653148,5.660442556309119,4.761771022832707,5.405610361800467,g
4.777434902316298,15.933971216336564,14.613047006446354,13.383298912622061,10.798215931503234,6.605022209190724,6.050227835708915,6.106375165343032,g
6.214612790633846,15.055469363892039,13.530556634323275,12.373728100900667,10.413876867469419,7.374180330891593,7.092603376600546,6.4875771872398005,g
7.517452286839178,13.957162080006706,12.191583337511359,11.047918127263806,9.811468483617855,7.9814920136698815,7.81022960401972,6.522759926975517,g
8.854667294276275,12.854189077010949,10.854168730341463,9.675112325089774,9.172862094294745,8.502094067452472,8.244249879306249,6.348605911281849,g
10.327821721453606,11.873432590926773,9.744194143116113,8.513776658505071,8.66284033599452,8.977338034808088,8.469219891210555,6.1572263837422705,g
11.936146032154742,11.053579181107484,8.952710718092753,7.696108665325466,8.330731006506365,9.346883623071882,8.482307341752323,6.0356521266888485,g
13.598444882973775,10.412351150121713,8.418366864072377,7.191116438734579,8.089717539961523,9.464932788624528,8.16705169309839,5.8840890621548105,g
15.172813392701405,9.911584856787318,7.985761191939266,6.838277225758449,7.769122678787662,9.193526845392315,7.377541652950451,5.495081061574408,g
16.493943426444666,9.42256433794128,7.520551229052193,6.454766195380124,7.219414758320289,8.493746769108352,6.068363712876376,4.727980281827671,g
17.465970321461747,8.84294209579777,7.0147257286102285,5.970524847353076,6.412095713543536,7.438893247469108,4.349695960526863,3.620696557768788,g
16.296138790734926,8.221576425670705,6.576664263679254,5.467331966329776,5.445834330133303,6.154353811425552,2.434356828500058,2.34975376404174,g
15.21906850523968,7.67290258217692,6.2922038114952095,5.064616524852246,4.4416381254909805,4.749680523550198,0.5462466574196394,1.0964639711599247,g
14.230883803153015,7.192462236906088,6.096296209920622,4.774595974563847,3.4337213619221414,3.288554806767779,-1.1414911368854121,-0.057267149506427285,g
13.201761440808488,6.648845696910852,5.795840187234262,4.487963989657574,2.368211552562967,1.792501579597707,-2.5333691136173018,-1.1334557286935194,g
12.002952987728863,5.935226935816381,5.214885480605851,4.082830424259681,1.191825813797427,0.26177867730698823,-3.6190925382407344,-2.1806071966685208,g
10.591226404989015,5.038699997622725,4.320647037755194,3.5215598251669733,-0.07050602295269873,-1.289481245273857,-4.453823409497067,-3.182636460921218,g
9.016056164575977,3.99829286023994,3.2523417149940412,2.8703932672821337,-1.2944550985196759,-2.791615900928347,-5.104358591202951,-4.025173227466643,g
7.437274589007181,2.9266756216329193,2.2701953324270665,2.279484918960641,-2.2712653253374553,-4.09908946048934,-5.588963103185263,-4.547911510656045,g
6.111716936453916,2.070480840776136,1.6452977928013621,1.9348535733811811,-2.7628028437253453,-5.019196167311214,-5.854466046985026,-4.641034209242308,g
5.241711346834028,1.6953636079525396,1.512266970056687,1.9567180090138332,-2.6145219564945243,-5.388217399353262,-5.810443177407402,-4.304209318577069,g
4.794517145003841,1.8392696694878126,1.7786520432340425,2.300872034049479,-1.8628824809831215,-5.155387683965257,-5.401201601207469,-3.6241161696335786,g
4.537315145552112,2.264589653099362,2.1962465109569007,2.7805542721831946,-0.7218479661370536,-4.413368609836183,-4.664554578094033,-2.7013742220499397,g
4.2782406943431015,2.706007818889614,2.5525294115140427,3.2067889770301528,0.5609247944532665,-3.335642443520971,-3.722756012753577,-1.593279515360758,g
4.0184241539202965,3.094761476504756,2.8016854608584074,3.4948003309859152,1.8416121052728827,-2.0554179358401905,-2.6997291264937395,-0.31694035883107985,g
3.8542442472080722,3.5085436248879964,3.020571041558005,3.63494170872395,3.0877968378325678,-0.592790053119114,-1.6356981076327586,1.0877633350637879,g
3.7997401121601087,3.994429870626881,3.2571731905947408,3.598400398060638,4.2753253617279166,1.0851037934064196,-0.49046326646467975,2.480936267842882,g
3.7310978148366956,4.489351562317799,3.412736232032075,3.2903665571708856,5.279913466738292,2.913238070266852,0.7544778574258516,3.6033770724532808,g
3.4442467926885874,4.820541420486185,3.2393240672039703,2.5707372777652897,5.847693382687224,4.639340731339489,1.9909966322172856,4.16027778093706,g
2.7574174225765047,4.729828884890528,2.4683593013826326,1.3214598667587798,5.686398189652133,5.910725799922672,2.9877883612462037,3.969767289354794,g
1.6638072738464786,4.02045605675138,1.0247590812516016,-0.4410463523594105,4.6618575751039995,6.489219721211967,3.519418049563975,3.0725444751888302,g
0.4533890876587817,2.8060535514070155,-0.8215271106858285,-2.4680115714303446,2.971372078548647,6.41691419262691,3.526778756634118,1.7234541359286575,g
-0.3994747751118107,1.5520828898335384,-2.5435457168148643,-4.330018695801829,1.1068350849691935,5.9849166208572715,3.180208338954958,0.2744208451111458,g
-0.5868033839633968,0.7373564341124007,-3.6753493749054855,-5.647964118282762,-0.4271981812792259,5.518133589328739,2.78073612933036,-0.9769271796945922,g
-0.21473757981817662,0.46780969520714144,-4.101075065075216,-6.315142914652815,-1.4207347619991955,5.144359073901294,2.55644438057642,-1.8938472272486457,g
0.3350648116973738,0.47763068410585685,-4.061260017679264,-6.500490422342965,-2.0229449738228302,4.737830050023229,2.5079459414072622,-2.5116315322956586,g
0.7637599372715658,0.459525764841339,-3.899853366180507,-6.455119551731379,-2.5312681324064563,4.089281232865763,2.4388114853023533,-2.9481064853005705,g
1.050440059638722,0.31486530577402727,-3.7969065317274953,-6.323878854940615,-3.1146134356478794,3.1594091051162905,2.1577985865257205,-3.2722717569864614,g
1.3681426330019284,0.1492348057603247,-3.685389259139698,-6.094565341475559,-3.689094735915827,2.1900398670198817,1.6796269125816679,-3.4332532646534895,g
1.8935350931465293,0.15841008723086897,-3.370341730716673,-5.668040190933829,-4.008962200128917,1.5650330808876558,1.2414758970639093,-3.313528266442654,g
2.6518938163649217,0.4963329459952853,-2.7454260761789775,-4.987642129720631,-3.8918531444451596,1.5334015016158609,1.116036847590573,-2.8638647038612093,g
3.437338427367453,1.1099174973938666,-1.9505359500686468,-4.15872091286718,-3.415513159364674,2.026665419278021,1.3826824723817839,-2.2025074395903435,g
3.890438155749101,1.676808525607121,-1.3278767292582363,-3.450551822916806,-2.917174928589658,2.713828631975173,1.848355101659997,-1.5911389480164615,g
3.165508922438188,1.455936717815398,-1.5320928858240088,-3.246500858772909,-3.0788096164762644,3.412064356016507,2.1329219124751986,-1.4482813326999544,g
2.477002690520986,0.8108377490517616,-2.1376654549727134,-3.6159604743849387,-3.677425451550011,3.3141516035390204,1.7307458610175703,-1.9354233334794757,g
2.0458205697186025,0.1764600002212069,-2.684915001888797,-3.9665101309959874,-4.241265591210234,3.1238793224358234,1.2252639467018187,-2.4926808949017363,g
2.0458205697186025,0.1764600002212069,-2.684915001888797,-3.9665101309959874,-4.241265591210234,3.1238793224358234,1.2252639467018187,-2.4926808949017367,g
1.9623320917222364,-0.33874826853740264,-3.004399111758691,-4.128121466205563,-4.547814386985033,2.974834774868658,0.9174617993667962,-2.8432255762060854,g
2.113625618652102,-0.7592626675149432,-3.1025601463082104,-4.0811380502534735,-4.562546758687248,2.863870499010784,0.9580290972020228,-2.8463161589317374,g
2.3376000954384506,-1.1095866029989618,-3.070619119393426,-3.9053870831447535,-4.386854006425918,2.695261367953287,1.2879026494584491,-2.5244010216935036,g
2.5078208658424854,-1.3995755223292308,-2.9846635105272377,-3.708452600882226,-4.154372211722498,2.3946243462248478,1.736397515603604,-1.9715652138840887,g
2.580292082493187,-1.634107943334013,-2.8511870066800347,-3.5534659720967787,-3.943708163080058,1.988407917619251,2.164041772304148,-1.2503121612384587,g
2.6262057197988105,-1.749919385499719,-2.6151155541045306,-3.4126841166357713,-3.74719935402283,1.5917597950253508,2.5314790735304973,-0.3762726511120385,g
2.7510316115375217,-1.626000473857171,-2.2392473118411167,-3.2114356086034404,-3.5222427251575064,1.330395976453921,2.873102068544362,0.618519775168463,g
2.9138585678563507,-1.2519724070521834,-1.7968077696651612,-2.943894236518193,-3.282952970324277,1.2626269633107987,3.2288043131419313,1.6319197656137916,g
2.8735701553038204,-0.8263153371614692,-1.4651563483320895,-2.7210393553195704,-3.1248140666302513,1.348307270145177,3.586665496511496,2.5084181796581,g
2.379813585159588,-0.5926383549958241,-1.3998459940987529,-2.671846825475706,-3.141003338928468,1.4752793094077026,3.8670777907793044,3.111956038839913,g
1.400625592442988,-0.612790607374775,-1.614054156233045,-2.808591057959167,-3.3253956454975677,1.5290470014197906,3.9664790640645315,3.399827062268134,g
0.140151664546532,-0.7670208190215616,-1.980510017622843,-3.009246541455713,-3.5706124459551196,1.4671559539991672,3.8432427170636245,3.446751337927774,g
-1.113180891239401,-0.9178617275235454,-2.3280199427274852,-3.1154597332366603,-3.7468220261674374,1.342692441406728,3.5751476059181,3.3954610444244744,g
-2.1259287466367187,-0.9901220415239621,-2.534701811838004,-3.0353900868762933,-3.7745743916028935,1.2489915762882329,3.3220679681779175,3.3587221539744676,g
-2.807978293871739,-0.960360387081671,-2.5802808430979,-2.792644867582769,-3.6564647030008666,1.226923911439418,3.211585952951711,3.346063193932821,g
-3.2775563404501113,-0.8980992870231365,-2.5583536865341117,-2.5215078191196496,-3.4779341639898647,1.2176185208357981,3.2423057966004394,3.2798559872208073,g
-3.8050613341646966,-0.9865606367972666,-2.6173816718603637,-2.3885052847940393,-3.359835571528675,1.1079255641124994,3.2885346072917114,3.089472521116307,g
-4.571435783827475,-1.356409916566097,-2.8275590869748584,-2.449161163513245,-3.3542407328453776,0.839084887468258,3.2099959450986923,2.803731072867203,g
-5.450414718204009,-1.871795683698418,-3.082130063358579,-2.5618252442880296,-3.365438386781944,0.49709967419337353,2.988045697575354,2.5665591912103225,g
-6.090059671430186,-2.189153686996987,-3.156770213543146,-2.483345193788191,-3.2031705670917723,0.3044405918302327,2.7738004393607882,2.558119717514614,g
-6.229420914383799,-2.0707812821243503,-2.8935041111765285,-2.081995200264966,-2.7450977282636213,0.4898468554842115,2.7822430596618184,2.862984565229706,g
-5.9075861098369185,-1.5797641674348843,-2.3372879699548563,-1.4564319272080901,-2.054514201826489,1.1128565579695926,3.100122499092371,3.371876603873703,g
-5.391984570266876,-0.9696035419257886,-1.7085458194820906,-0.8523730828174891,-1.342829121131731,1.9895533439755386,3.585349900582308,3.8114622421115563,g
-4.968566772428341,-0.47446069537094715,-1.2505304649591353,-0.4758049325325896,-0.8187008824226696,2.8070556771302746,3.9753851611002076,3.919172739016207,g
-4.769955150629452,-0.20313438155413746,-1.0656362120137053,-0.358146288557771,-0.5448430873802895,3.345167791104894,4.115026729745333,3.641792870906157,g
-4.687776409940051,-0.09662626901853653,-1.037731253599766,-0.342040852893013,-0.39347221163313295,3.6142900305404853,4.082134921752203,3.1796517216069553,g
-4.415609112114026,0.07812362565165373,-0.8997460211452519,-0.1858941615572565,-0.13223700800666105,3.7974176866563574,4.091659041992526,2.820999254759136,g
-3.6736305551517576,0.5850849109378276,-0.4273389699295687,0.25907084798100277,0.3994949087385068,4.0673457237917905,4.281291227371637,2.7073417762808965,g
-2.467653725024365,1.4724665702199669,0.3853749090237398,0.9242631586981691,1.1546836370801743,4.446497301143394,4.585736497669831,2.735233139040701,g
-1.0977437207928638,2.517779245554594,1.3374276927021658,1.5869894944146754,1.9200757161923754,4.81322494236231,4.805468000438927,2.6726228134838665,g
0.11763297675141304,3.474531345404489,2.214968019853811,2.0856548802430246,2.5137289852123716,5.026060894911763,4.794317765036841,2.382245014337083,g
1.0866507731134163,4.310088535464532,2.96833418226631,2.4685060723995162,2.944551738900117,5.053730032944788,4.593709159912396,1.9626432759584513,g
1.9156873108262686,5.148937914440199,3.709519642613838,2.928321064060717,3.38055312161245,5.008147110918994,4.395577748761309,1.6897916509621518,g
2.736822423012928,6.07387772646883,4.577053948155488,3.6220099990434576,3.9841042249289425,5.059455799486955,4.369485562901078,1.80443228338619,g
3.6222733787290537,7.07364626780752,5.617599293761471,4.563543949228115,4.783973437432791,5.306388281812732,4.513903512169437,2.3181582888467944,g
4.580677264317815,8.102443167901015,6.749759232586591,5.635628282519579,5.663761712951805,5.707307832044448,4.669351164737425,2.9971101789907424,g
5.529288997295449,9.061508923867406,7.7916028793422285,6.64917273667992,6.431202521753302,6.1196730226326785,4.673841534499239,3.5300599466132168,g
6.298821403384123,9.764982525840878,8.543819994148443,7.420974183750493,6.922423579062281,6.406074079600382,4.506375361575115,3.7354068681699166,g
6.762004011166061,10.065723129096071,8.910645755317336,7.871739933908937,7.104549515613577,6.525870956202309,4.2920583361867015,3.650092972748724,g
6.9673880079094745,10.03150458065328,8.971436650074603,8.077740103116453,7.105918284036058,6.559318135863938,4.190399949280691,3.463565156496125,g
7.100574360435708,9.90897609487937,8.92573081926677,8.20292228101793,7.125649393812393,6.658718122358991,4.287630429261639,3.3773504525960734,g
7.33083721563487,9.910724249252922,8.960594131856084,8.368745420087134,7.291074928216349,6.953655200242532,4.575907621093387,3.4922014947110775,g
8.293359668178361,10.443817391801904,9.474646247051762,8.805935794611376,7.902218519676029,8.046602396074096,5.514037569377176,4.110251340502976,g
8.891004647027604,10.815999112813651,9.772671887533576,8.909582496651064,8.078004108238018,8.504465037795192,6.068995399916593,4.370478601188397,g
9.286508502185852,10.994393742659053,9.86758022572177,8.784304226997186,7.982290255906525,8.658811090470957,6.591750748159647,4.481926269063495,g
9.286508502185853,10.994393742659053,9.86758022572177,8.784304226997186,7.982290255906525,8.658811090470959,6.591750748159649,4.481926269063494,g
9.264193945094094,10.772749482140636,9.639069593725353,8.363990893624955,7.553957661316977,8.465154016850262,6.950669963738333,4.417651423063664,g
8.831784767765024,10.178460650294673,9.122358212788471,7.706339887676755,6.8459669279785915,8.011507489268379,6.997311176709404,4.169373308077308,g
8.220324953989874,9.481016624430755,8.47678591661741,6.966687741197222,5.995331417166536,7.437187754388653,6.669244535847279,3.7408162855571945,g
7.661454699608472,8.929218665901972,7.84439685102947,6.269856693435883,5.128928085132821,6.83134499162521,6.064553967683123,3.16669673576681,g
7.218157959486828,8.548232975725458,7.247207801729769,5.621996015934973,4.300974380068624,6.184537122455144,5.392135883235797,2.5144275882690357,g
6.83451770141087,8.22103317889363,6.617571439272256,4.954253934021971,3.5167194608630425,5.427611006721662,4.816992010915013,1.8484124509341915,g
6.459294912970789,7.8633570379192035,5.897701731982365,4.221792745316346,2.785341543518567,4.527146405010216,4.336705720736948,1.1918570443749101,g
6.083924263091513,7.4627638703017025,5.106177427531699,3.4519655554785778,2.138809310346283,3.5591916265828445,3.8068905325137434,0.5301492031000944,g
5.745895844585739,7.05969364299442,4.351533088563171,2.743980661516462,1.63644828222833,2.698957357417477,3.0984997722053382,-0.1407103004378029,g
5.5574770352131875,6.790061158373308,3.8062033580216466,2.2538749197461234,1.3816156592380093,2.1358913025647692,2.256163121504223,-0.7554304614961571,g
5.66247299729711,6.8596021027859395,3.6247328660134435,2.1333470290311074,1.5030660050012483,1.9797588443731762,1.5240283606104896,-1.15931936249797,g
6.0817754769107495,7.345411872858753,3.82866536435215,2.4145024404132718,2.0631345901058853,2.213381759999609,1.2011492231703484,-1.1656651231246233,g
6.629143574956626,8.04769349527034,4.264470060832224,2.9479488428788834,2.968092443138432,2.704682305975497,1.4218106474204786,-0.6775784783685538,g
7.039296194152645,8.632840385312075,4.703614875430802,3.492709443855463,3.9914672598027714,3.269068026220231,2.0391027989844113,0.21737324642518824,g
7.16149189890542,8.90965355969834,5.000338932758224,3.8863262195929225,4.903800768394236,3.764040196956002,2.7276765742034437,1.2835021807888392,g
7.000920874805527,8.909398153307286,5.160770498243318,4.131811774100878,5.592837627976037,4.167928916068042,3.2276411174324577,2.2949857287572115,g
6.635735782489891,8.759653486085831,5.285932533878827,4.346835800308395,6.088897699647904,4.575442135401088,3.5085750542591625,3.1728960807953848,g
6.169156269818967,8.586526797781909,5.4675030574040715,4.651984143094197,6.502595138535101,5.0951419276211976,3.711931528653571,3.972437534652421,g
5.720320109646567,8.496055474849609,5.7147102821154885,5.076452507140254,6.924191756194881,5.729515426392879,3.957283218173533,4.749955692981757,g
5.367405334180185,8.513873788052207,5.946485032925191,5.519283681981062,7.3451030540539985,6.34678664497236,4.219617765492262,5.456784099451374,g
5.102503758113794,8.534682793772678,6.063796867473544,5.806817525946596,7.6699594332259995,6.771341827007559,4.381988379692933,5.958171432640402,g
4.908521905854935,8.442755763725039,6.065646903958598,5.839815323746095,7.828866824254439,6.913592856475097,4.382574904179446,6.141000628361037,g
4.861946008975517,8.298082553360025,6.092408458160476,5.701362281581905,7.880115014794379,6.833452933736675,4.302252410904564,6.003123412012952,g
5.07157831913363,8.298064064519462,6.314300267179135,5.587382342598223,7.973217382029864,6.690315615054184,4.310118710907959,5.649491477090378,g
5.506165680410355,8.526826859551047,6.754803081735053,5.612072013678063,8.194953361356012,6.615429941526857,4.507773453464222,5.199877695537533,g
5.956590216452504,8.832914779688007,7.232810854940515,5.694015068869248,8.46352934824047,6.598818080879819,4.802329664239257,4.684695074135087,g
6.184304321951136,8.976226688298533,7.477532076589638,5.625874266746637,8.576139946887464,6.481081108782133,4.935299414803614,4.0258990516957756,g
6.048003491021815,8.79783430675664,7.288122196280746,5.225310708151847,8.344853300984939,6.066753147276974,4.67301677995161,3.1334507045798765,g
5.491006323020941,8.224389618617222,6.606991069326682,4.432412912111564,7.698191288179016,5.274735932953986,4.0038484586258205,2.033009017935956,g
4.507092324132715,7.24209500325601,5.502976500959258,3.331478736315263,6.702981810121196,4.2079308979308365,3.1579582084035764,0.8987785878167142,g
3.169934516983364,5.96092551278466,4.12024488329671,2.120745574582315,5.524287833365586,3.0979959452366987,2.428407654664748,-0.041952322554370626,g
1.6335203192875098,4.624974736332241,2.619493526128629,1.0248333426655207,4.345247669244543,2.182912861875385,1.9612290279141515,-0.6407130329309888,g
0.056929110172922036,3.4636589301551743,1.1322524705883228,0.1823998830329782,3.2862013104156276,1.60289284189545,1.6897873609545422,-0.8882582082618089,g
-1.429304147478234,2.5635915956159634,-0.23921933522919261,-0.39414824908651286,2.382546393039108,1.3556892274932673,1.430368033513607,-0.8853613424227431,g
-2.669204433598153,1.921193018435704,-1.3937562479221914,-0.7534366852463261,1.6280787444186156,1.3130741085346551,1.0284217951957726,-0.7767880861545426,g
-3.483602257001048,1.5335482760236565,-2.241334180555959,-0.9290361433291722,1.016928939387088,1.2942752996062477,0.455680100949546,-0.6903361942043797,g
-3.7940690755522284,1.3641283906401789,-2.7552332538721465,-0.9346114593609741,0.5436419976623268,1.17602110949282,-0.17239042680863728,-0.689702499628657,g
-3.691624388344659,1.310088586122842,-2.98012180548101,-0.786049010728544,0.20483788690352042,0.9779766233050207,-0.6542589162676208,-0.7519751922275549,g
-3.3177023627213544,1.3240868933997856,-2.9605121178059077,-0.4880466429673181,0.03454920116844592,0.8540573958322218,-0.8108182984993502,-0.7885204899115721,g
-2.7182317897137294,1.5238452978935475,-2.6847110186046668,-0.02731489593636587,0.11457417250994784,0.9821671750280576,-0.5855037644918866,-0.7038989799170711,g
-1.8764256692058354,2.0600685734983677,-2.1334860449049344,0.572334893389493,0.5025872246435549,1.4245598035865874,-0.07421264263175757,-0.4598717026608625,g
0.20057574756836788,3.7072199923145774,-0.5982260666594762,1.666151354170522,1.8176745321618384,2.581104294717089,0.9569366012254987,0.1700540081233044,g
1.0715362461763807,4.2304643002180224,-0.03194365313597748,1.8495840981037213,2.30171393414897,2.7051002181295973,1.0446816124248928,0.19501190370378776,g
1.5731801320256467,4.247598433297256,0.125847746873934,1.6850392431415666,2.3976622888812584,2.249543691342136,0.7043060458751628,-0.181849853547577,g
1.5731801320256467,4.247598433297256,0.12584774687393402,1.6850392431415664,2.397662288881258,2.2495436913421365,0.7043060458751629,-0.18184985354757693,g
1.553426467233555,3.6758700120058263,-0.21364826190706498,1.1762610866079624,2.044224349081553,1.2549359547204284,0.012754567514391756,-0.9425736052140312,g
0.9996983218777252,2.585452031032689,-0.9812454589169146,0.39306576218933226,1.3376919377005294,-0.06488145498063096,-0.8457621777247277,-1.9082488069866455,g
0.11992963808000807,1.2457677299710164,-1.9591990672179205,-0.5103250756841347,0.4947355919367702,-1.450125974347596,-1.699578116195902,-2.8469413842639453,g
-0.7665886577727109,0.006641093627740169,-2.8853271953064112,-1.3352099226914549,-0.2607260640573681,-2.7070062529465564,-2.484079810935636,-3.6063902504841217,g
-1.4546011764952569,-0.9408537891410986,-3.5861914382754585,-1.9318690246076031,-0.8163416847373556,-3.7389019285731657,-3.2319625267161767,-4.1722352245688406,g
-1.9340991972154093,-1.6364712027757171,-4.025477279756078,-2.250357149234512,-1.1941595906243683,-4.517809517328111,-3.9858579652258195,-4.628865850335757,g
-2.2699234538585347,-2.1844355100817365,-4.25311816295462,-2.314503205853549,-1.4742116050381504,-5.051664840032023,-4.723821012802306,-5.071071616863137,g
-2.488381371589824,-2.6148948345558405,-4.342707242515404,-2.1875729809547417,-1.7166313551023376,-5.368941696331161,-5.355347217746817,-5.529402878094963,g
-2.591426488324129,-2.9294697507243788,-4.365655192219892,-1.964898207020538,-1.94491378199681,-5.509383980481177,-5.781133969914402,-5.954414437222785,g
-2.585694910223832,-3.156099570566621,-4.3686945647824,-1.7449781160655846,-2.1586114057525703,-5.514952222344419,-5.971444071227063,-6.268859229981827,g
-2.4505994629747203,-3.281371388588996,-4.344739986141503,-1.5697490268144012,-2.3393122803377913,-5.424784555621524,-6.003350890408758,-6.441636890058659,g
-2.1486407018484277,-3.2214041102245474,-4.248280182762483,-1.4130748466826326,-2.468734832141076,-5.273471810749728,-6.0145840437461375,-6.5104685687562425,g
-1.7214798970375007,-2.9525612858912362,-4.064578328121335,-1.2496466720723427,-2.5666671317977516,-5.094664510516952,-6.100580840240703,-6.533428577253233,g
-1.324539996010946,-2.6125258041009,-3.855352697342795,-1.114540310480111,-2.700901306895193,-4.9375503932823275,-6.248545883677031,-6.5322331225846835,g
-1.116334031989684,-2.3905989561602023,-3.726330951763605,-1.0766260792492017,-2.940920123355804,-4.882388273570472,-6.374982582610689,-6.494896790729141,g
-1.1518060146100237,-2.3634997727511786,-3.7620416351084183,-1.177909981704018,-3.30464332275933,-5.016938638048003,-6.425318832264,-6.425313988671545,g
-1.414514709613277,-2.5014600646940446,-3.991608596258028,-1.4202401138198575,-3.7531393918435443,-5.367883090606901,-6.434061087938964,-6.371082973834037,g
-1.8852552621308178,-2.763743944543351,-4.381753976551712,-1.7812623098810483,-4.215819746865125,-5.84893211394064,-6.496462984347632,-6.39341938422563,g
-2.512101648516749,-3.089860853438524,-4.8353291019522535,-2.204792467323656,-4.6043949774047075,-6.291530691619592,-6.68762249299696,-6.507694941608418,g
-3.1620638962756025,-3.350909908883106,-5.218210860449532,-2.589951320214236,-4.824917383548583,-6.541915899528178,-6.9922445778608395,-6.646193644528003,g
-3.6850000960263793,-3.431327421450189,-5.424744211994077,-2.8299407815616346,-4.811956407420709,-6.541397047206419,-7.289493516965651,-6.676106595391893,g
-4.011617946313559,-3.3480803397525927,-5.422232552835493,-2.8673109699344614,-4.556606546391867,-6.332982849639311,-7.411363812129724,-6.474108589180085,g
-4.137023531325335,-3.193940572690815,-5.226582214556634,-2.7014454209390024,-4.091034104533135,-6.00846904808217,-7.2509878790057245,-6.019361519686735,g
-4.048546529987311,-2.98237151596922,-4.861309721161244,-2.3706468721378835,-3.46036163401765,-5.644701806350388,-6.84565724540691,-5.435926186434512,g
-3.753039750659359,-2.657467165211063,-4.3718373676299525,-1.966094325604157,-2.7337934009187164,-5.2693670125586065,-6.361693681576489,-4.937041726849375,g
-3.3542950391755206,-2.2512302597831995,-3.8595208304796116,-1.6387364696754319,-2.027713846027347,-4.874985631648886,-5.988982733216356,-4.7013532274519,g
-3.003519542468525,-1.9080693201330814,-3.4458784243084843,-1.5187415183178423,-1.4702117021650296,-4.466957929824332,-5.830043959802506,-4.772870091796856,g
-2.749860301386498,-1.721959357880793,-3.179843994060872,-1.5959475804466243,-1.1200616818141207,-4.096649080036022,-5.858247511655625,-5.054821601317405,g
-2.5034254839368777,-1.6450978428829015,-2.9986846209710696,-1.7105883622689757,-0.9344394876634166,-3.8385952777642536,-5.952189991761399,-5.388274553813686,g
-2.1605392669041015,-1.5862090860348004,-2.7913261644559384,-1.688485623428671,-0.8234524287822375,-3.7318416040061875,-5.971438073830843,-5.65129622707208,g
-1.7117471586757786,-1.506253408226219,-2.4945486608551906,-1.4814988005991157,-0.7259177619442994,-3.749754075035159,-5.837194173936325,-5.819277586427529,g
-1.2310175581491467,-1.3913977753272884,-2.1448690736631804,-1.1900198801521098,-0.6432242639513648,-3.8311786465024262,-5.582355089389133,-5.962198093335209,g
-0.8383030633204284,-1.2438259158671439,-1.8726212374862352,-0.9891304353852636,-0.6370275906113683,-3.938628060970282,-5.339369746682982,-6.188376065694893,g
-0.68282485033842,-1.1553234304837978,-1.8398635613431016,-1.0309820346256788,-0.8034319331892025,-4.087348046491111,-5.267370684321769,-6.570198648880828,g
-0.8623104451921332,-1.283633101332374,-2.127490583200796,-1.3534486891050994,-1.2094807123582583,-4.325567300080958,-5.462639174624153,-7.096482932854104,g
-1.299658407233367,-1.670003556320665,-2.646948638713012,-1.837053221250302,-1.8209650327354567,-4.688425446522791,-5.902643636070026,-7.674984453609643,g
-1.7649110684043994,-2.154312197240956,-3.1863607010355186,-2.2786941972031256,-2.504805902679209,-5.159359132110808,-6.44583124781033,-8.171954621175647,g
-2.0819237029001676,-2.551025090314939,-3.5754979747103817,-2.5500194128951743,-3.1225766041938745,-5.660432695884134,-6.886051857742518,-8.45954870490351,g
-2.275635038403993,-2.84224664763106,-3.8022806226780914,-2.679320531102689,-3.6119904368370293,-6.074320755271712,-7.046353931795759,-8.453466931806494,g
-2.4809453022452326,-3.118247782043754,-3.9655366345048373,-2.7684797839199207,-3.970824780484967,-6.284059290636847,-6.869316577156416,-8.134337463218298,g
-2.7696921963885517,-3.4032732473119602,-4.146605358338219,-2.864740208833218,-4.195042553171151,-6.210855313094951,-6.440677986352524,-7.545084132804158,g
-3.121973545061464,-3.6475040818776705,-4.349156584235204,-2.9437656116791415,-4.266991260997662,-5.838376083336636,-5.919571419044985,-6.7634894312767795,g
-3.8755466032915513,-4.010391396153144,-4.658012287863462,-2.9860524105315123,-3.9960849038839314,-4.478545317588239,-4.988837981643515,-4.932844391904613,g
-4.198926869737049,-4.162576244129246,-4.732832548204,-2.9774307267885725,-3.7395996598427055,-3.7562446089191495,-4.5559292153925774,-4.019690280130524,g
-4.4679195481222616,-4.2952036861862,-4.821433292160064,-2.9751936359805176,-3.4855095934476497,-3.1787335789262112,-4.095577813222898,-3.203156443634211,g
-4.467919548122261,-4.295203686186199,-4.821433292160064,-2.975193635980517,-3.48550959344765,-3.1787335789262112,-4.095577813222899,-3.203156443634211,g
-4.766502125212048,-4.482075924290445,-5.025595744763736,-3.014293455607306,-3.3105929311886917,-2.7955448745386917,-3.6494017714944627,-2.5588687200685754,g
-5.17676716319829,-4.797743317561856,-5.396246321694136,-3.124533058756877,-3.261834533352901,-2.5645268746822194,-3.325525980437226,-2.149304750280038,g
-5.650486700964174,-5.172055114760011,-5.866876139092672,-3.2934214215599233,-3.3156656021951916,-2.3838935336019653,-3.2213411750480736,-2.003102383611597,g
-6.044698137315591,-5.438082508239723,-6.3031823626634935,-3.483531284007545,-3.408992374230055,-2.159456466899574,-3.338142582525768,-2.1015263450823136,g
-6.280677431864381,-5.54242925170011,-6.6220875181676835,-3.6851597677739734,-3.516831712842644,-1.8682073495660283,-3.5676249680482437,-2.388746152324609,g
-6.397649037374434,-5.60194441962703,-6.839956898889781,-3.912537023425583,-3.6728035792274127,-1.5755385446206107,-3.771855762968309,-2.8046643449300843,g
-6.458696135040182,-5.73009687514814,-7.011355809397448,-4.145352005688684,-3.9069218133766412,-1.3882490873750046,-3.881219679096474,-3.305992802505389,g
-6.487623439821512,-5.911202354563509,-7.154250972818545,-4.316611877348068,-4.1882339205591155,-1.3722069604172287,-3.9104486285762534,-3.8443120592365174,g
-6.500992527590162,-6.072546401475004,-7.2335268728311375,-4.370508841656113,-4.434541577901123,-1.4986629166174947,-3.8837071824253813,-4.323459034699946,g
-6.506742427068036,-6.166976354672135,-7.177670128822544,-4.296013676309675,-4.553149736638937,-1.6663719074879175,-3.7618244898845,-4.596584405031417,g
-6.441360674692858,-6.136316164926021,-6.903441047726116,-4.093197209342443,-4.469868238598774,-1.782229961935813,-3.457706895421269,-4.528221457063674,g
-6.194948129530129,-5.9080199470312476,-6.369529312961167,-3.751432135945335,-4.160190154049674,-1.8318562937386969,-2.928551518127207,-4.078734984147435,g
-5.750085166036931,-5.510720236109497,-5.638768186341649,-3.2889761765995673,-3.682192550610374,-1.8846704711462607,-2.259120372261354,-3.3459911296385543,g
-5.236401650803524,-5.109375995153282,-4.867114489137598,-2.7814462099802926,-3.157296994743639,-2.0355193271963428,-1.656992825870202,-2.5324001396822857,g
-4.802835702870594,-4.837854563552637,-4.201731077918028,-2.317202145759906,-2.6857143080468164,-2.3275157441418535,-1.3427027475282123,-1.8501897767630964,g
-4.486242395890661,-4.653163637012938,-3.688507135463351,-1.9388415167699917,-2.2796790058908036,-2.7049465669179384,-1.397473831978816,-1.4126528782903638,g
-4.238185462254044,-4.424215206911651,-3.2755610224744465,-1.6445457580476108,-1.886745646446593,-3.028306889526788,-1.68819889814878,-1.1817110566132676,g
-4.011581484774827,-4.098309469908983,-2.8782291669402684,-1.4183560045262837,-1.4626720523478896,-3.15296679418275,-1.9566888882439428,-1.021587282912316,g
-3.7649929808734726,-3.7035193988022543,-2.430947939522467,-1.2321800492106547,-1.0105199644774283,-3.026387782242794,-2.0224939815364893,-0.8259907095579596,g
-3.445995195038596,-3.2636342653359875,-1.9180117909690892,-1.0461788657140823,-0.5739879969667327,-2.730221776063594,-1.9255763871959437,-0.609101625065928,g
-3.0522502669547897,-2.8238331953505993,-1.3976892872568836,-0.8486362746406426,-0.21995578767674379,-2.4294782604804177,-1.8755767201759277,-0.47644785363103387,g
-2.677346446102035,-2.5118843478679596,-0.9832993835912298,-0.6851968590148945,-0.009213381278290328,-2.268587919961713,-2.05438458579303,-0.5079312711185702,g
-2.422236185544194,-2.44333568429909,-0.7571608923968377,-0.612186737156853,0.0560357152686551,-2.291858295407004,-2.4486815910286004,-0.6644955095389659,g
-2.2771638818339084,-2.566146761926777,-0.6899301907693319,-0.6219367093803748,0.061240801790045055,-2.4319994900916084,-2.8451169114602095,-0.7927458936560424,g
-2.1480587381536083,-2.6974339973877663,-0.6581871872777552,-0.6388691915115982,0.13071974949597695,-2.55833177141849,-2.9746695136943098,-0.7092656223701351,g
-1.97347018952487,-2.7150063019602326,-0.5414396288665072,-0.5822144009159659,0.33929288892545173,-2.5532267769463166,-2.6884574446361027,-0.2973628649743344,g
-1.7517983418645318,-2.631637038816521,-0.29850222772924856,-0.4103419552231126,0.6773812947890099,-2.3789206509266716,-2.0437980193334595,0.439250672178707,g
-1.4852500754911309,-2.5048161091036563,0.02144891920009302,-0.126698686277169,1.0868153778572787,-2.0943626350835043,-1.2513551947974588,1.386891539528229,g
-1.1875432586700287,-2.390760892458384,0.30414248605643446,0.20633046656650578,1.5008928060407105,-1.8064076129509452,-0.5326582192888941,2.3807564753428614,g
-0.9411875368668099,-2.386312904848592,0.42139298300190153,0.46112967975534397,1.8574013898797126,-1.5899593881225815,0.0028023903920320393,3.269965433091543,g
-0.8493406679537628,-2.5725097683657228,0.32097495664561276,0.5162039865010072,2.122636023877911,-1.4343111153387567,0.3849235423199474,3.95676353374958,g
-0.8972425895519229,-2.8516084261254635,0.10546263411309158,0.3790583988839832,2.3358810569427595,-1.2421908622526963,0.7332775819049295,4.417584828144305,g
-0.9228739776012089,-2.9351373491082455,0.006036656051665562,0.22509279844185723,2.6152578511194133,-0.871358357888057,1.196238386844086,4.722853523900673,g
-0.7516591247055249,-2.568817074692274,0.2443954356977886,0.28839413686464843,3.0894449133946784,-0.2056391526812039,1.8996035354678553,5.0283710459127455,g
-0.31804866319734276,-1.7314316080321643,0.8923017996489655,0.7012597140649767,3.8031851145089624,0.7599010617243903,2.8765521128180245,5.489839678227955,g
0.33752021997872433,-0.6070459828346,1.8274125520562277,1.4086517693666727,4.663375243405305,1.8682690066986845,3.991189956551705,6.123055310233001,g
1.1059705854774806,0.5402733089650912,2.790687494912839,2.1901616326680253,5.451504661125568,2.848392989895477,4.942534413224382,6.728952036987276,g
1.8230937409922223,1.4389928457565186,3.5109342864863544,2.7692262118892055,5.911350163847098,3.462820941982661,5.41131497873752,6.988469826111983,g
2.3458597081030312,1.907874637134863,3.858121686724592,2.980096681686771,5.90237226215665,3.6586988807552445,5.277520597532293,6.689148885541113,g
2.688570494854913,2.0115006136729723,3.936179133785894,2.8971526850826113,5.526701292418164,3.602235812410496,4.736721755257621,5.912300138950773,g
3.0305662456403453,2.0552453583608807,4.006529967016838,2.787912028772938,5.088211642781729,3.562456161584876,4.197600139969255,5.0205321235641645,g
3.5226401450969056,2.304538423236283,4.266110655694684,2.887121480149997,4.8678506426329715,3.724401249715347,4.011485610982472,4.432965443377133,g
4.615329419602952,3.019747788144054,4.987958831063531,3.4917613764033235,4.9732303652765975,4.364388170076365,4.560480996689198,4.584199036749121,g
4.874693279614331,2.989342112651348,4.971521399684075,3.5339249069992866,4.806842741255291,4.396484207221365,4.632782092187519,4.78169100736653,g
4.866052382519634,2.620483400311582,4.567902799072146,3.229475919696989,4.298133972762875,4.086503401333311,4.277442311248727,4.646586448897669,g
4.866052382519633,2.6204834003115822,4.567902799072146,3.2294759196969878,4.298133972762875,4.086503401333312,4.277442311248727,4.64658644889767,g
4.650321382560373,2.0670598550039405,3.9369561244185887,2.6836541771445273,3.589363406002124,3.580510640765373,3.6789206430778116,4.211012177415395,g
4.344463020852252,1.5562151404135323,3.3526206508679524,2.129326334022877,2.9715301324402414,3.1257065015693604,3.2167341698978182,3.7937552200645586,g
4.084791876977592,1.3098482863013479,3.0315350308760154,1.7936739996824815,2.683319619959437,2.884777500784972,3.1651375005717832,3.7461813832741777,g
3.922211392144414,1.3981950969148291,2.9888877196071286,1.7557422579745334,2.7366815954130717,2.838344314920561,3.504803488413497,4.191798143994539,g
3.7529357717096636,1.641104846496578,3.0352809027487107,1.8945848663717306,2.9050256449242773,2.8404761197056256,3.9767175699183412,4.950580242815543,g
3.426950982314851,1.7583351232634126,2.9433245162277974,1.9952380416796356,2.9081324967692086,2.7639252841974735,4.302646190242248,5.677824421780406,g
2.9274755855937036,1.6508576153812407,2.6443477286084525,1.924006813808265,2.646862400087606,2.6206156883583325,4.3973054806988,6.099656001059634,g
2.379140529326115,1.4615422806211733,2.2686109150755227,1.7017975962488674,2.2756153484125052,2.5752966826252908,4.43053993549505,6.177927080625082,g
1.8839292529256788,1.3583964538046263,2.0079979592693586,1.430904993524036,2.0581466233016905,2.838465869191281,4.699410231724113,6.0932560157692235,g
1.4229759945632672,1.3595237574958787,1.955789378487275,1.1901130248683063,2.1568225872788154,3.5026174848240315,5.395279571663784,6.068218375522084,g
0.9235948804192621,1.385516693879869,2.056741360869695,0.9934924044892496,2.5288718027179824,4.44104036251997,6.439645768645074,6.180228047757623,g
0.34548113045706835,1.3649269283371812,2.164626589952279,0.7970017403104416,2.9731744690013238,5.360306668731493,7.5236726399044205,6.319520233633718,g
-0.31015451536350314,1.2403248708408534,2.144209447366873,0.525645448625435,3.2691067090106616,5.9785529795852685,8.320128791130102,6.311336279571622,g
-0.9916383729883871,0.9800342865536835,1.9667291846805033,0.1356930322560989,3.322378717087859,6.1906771737482975,8.690801057310434,6.074954175824337,g
-1.571934704155209,0.6531575073822203,1.7339310729288964,-0.3235440528379332,3.2193783277084513,6.089768169689218,8.727922643712276,5.678538321525302,g
-1.9260359346434452,0.39830123008503093,1.5780567629422877,-0.7422104030193797,3.125079255552897,5.836984544424813,8.616162502919474,5.261109903482471,g
-2.0912271670801252,0.2363509319318627,1.5090174972405168,-1.0700257852399664,3.099662537974667,5.498492943741472,8.441442176837398,4.908872571040759,g
-2.277780738532724,-0.0014470182644863883,1.3825332477096184,-1.3700704086697095,3.026634331791267,4.9944832904315914,8.108127949000634,4.600913646046436,g
-2.643217043605898,-0.4561151848590139,1.0538515635026848,-1.712526039420641,2.7490131863757443,4.213415169906448,7.446438699327241,4.274408494992107,g
-3.088817293595621,-1.0000085396614753,0.5619220070807867,-2.0300759147748813,2.2770135064866586,3.2007568834534355,6.437584909827637,3.9508530399910335,g
-3.333565174821726,-1.3012498618069948,0.14813556389572996,-2.114920986256159,1.8496273671757533,2.2480888393113596,5.3568212461022195,3.7941767054749094,g
-3.1628866523437895,-1.0965123123306364,0.09660749471277165,-1.7629366619860456,1.7936787993985768,1.7722527856415546,4.668926120600951,4.017581417490667,g
-2.5811697434383563,-0.34752593281549143,0.542364368131072,-0.9231505918934003,2.3096617847653533,2.054391518764569,4.723650493999053,4.701453121432978,g
-1.7927396796881367,0.7866419810823037,1.379837447433747,0.2512302394271807,3.339889163590633,3.04765265880405,5.5017225041586215,5.689081081359887,g
-1.099348366006538,2.0177417538159417,2.316700959344343,1.4636666327600296,4.5941957126381485,4.4155086397923755,6.634044023703635,6.666593216668306,g
-0.7457207035925331,3.0284216134332675,3.0490669849601106,2.426238732243937,5.719760448937824,5.7624501849550445,7.670563603767663,7.360392122397913,g
-0.7476710749504016,3.660308242207831,3.4512145268495678,3.027783186889037,6.5071352204656066,6.858063600837686,8.360696420851946,7.680646889566755,g
-0.8745196895438742,4.0234235311984445,3.618436057200887,3.372481778148566,6.968514689814368,7.685103150938045,8.727276783533396,7.704571788021013,g
-0.8868007844096301,4.321731273421769,3.7091119601939426,3.6215323934076666,7.220584961769047,8.315488018349848,8.919122263654579,7.544717420994411,g
-0.803305817810797,4.563834611249119,3.7464532695673967,3.789588605406659,7.305537709090689,8.75929978809576,9.00651951529797,7.233309706055275,g
-0.8770647333283421,4.5388435610898155,3.5930606748081195,3.720954632269291,7.147413304295595,8.925693181926093,8.902096634499925,6.716756558368074,g
-1.311767113697531,4.081309893327034,3.112207656779051,3.264017104012649,6.670627989434318,8.715978827239521,8.46332295617913,5.9523933581720785,g
-2.053236736353103,3.2652342744872684,2.334705818401486,2.44587881547992,5.927476921740009,8.153628158357543,7.67336539536316,5.017884336490811,g
-2.829415237824411,2.340249602682978,1.486998166884093,1.4938678401748793,5.1107056177839345,7.4313205671201175,6.729179216436869,4.134962512236265,g
-3.3058897765991064,1.596638938829685,0.8929453254227585,0.7330164525934536,4.47197034129164,6.829366098137385,5.950255113250994,3.577956825084177,g
-3.2213428480760706,1.3058587915985207,0.8262580647609774,0.44829290082342077,4.218740577183267,6.566631972477227,5.586827337584628,3.5321397353072603,g
-2.5121552105806355,1.6316378161470737,1.3749731283265687,0.7558646719784423,4.424881333714412,6.693956130605356,5.690775424797549,4.004964537552638,g
-1.3825337960582755,2.4877349108382583,2.391664785079512,1.539984823409567,4.989827543833577,7.094982781539192,6.134685951644112,4.842287951196418,g
-0.18378650677536137,3.5568834381649403,3.591069688150921,2.532341374435828,5.695938870321184,7.57413870402237,6.724068210857725,5.821082306985132,g
0.8553620432877767,4.54218251929052,4.737572143228609,3.5004049999172757,6.34283683482297,7.965143016944921,7.2975731272036555,6.755335719315694,g
1.774584541498628,5.369102615688105,5.761113160159362,4.376963180628964,6.845799107916454,8.202797600971317,7.76775567653565,7.564033399109768,g
2.758432836299013,6.112550949413469,6.7160615495675415,5.221147793098055,7.221280922522213,8.32784722899812,8.114957055143371,8.268956982550382,g
5.226174297542048,7.454468601748927,8.584458858617158,6.9454798165402,7.706983356812638,8.509987073633178,8.467341785467216,9.477526567435739,g
6.491686180675975,7.969876833386843,9.375396461596182,7.660337383415957,7.773187637711698,8.510145425551816,8.400103196127379,9.807802930323835,g
7.454962516783556,8.260521508174019,9.871838670341853,8.04765538016943,7.62949327596602,8.283620132769375,8.062101508000854,9.739253191248554,g
7.454962516783556,8.260521508174019,9.871838670341853,8.04765538016943,7.62949327596602,8.283620132769377,8.062101508000854,9.739253191248554,g
7.886406275820308,8.189248628304686,9.950714030259183,7.970718691326209,7.233168178223394,7.760249283195913,7.425191330780862,9.225484790492192,g
7.787414815774477,7.746038704390038,9.651859556280852,7.471633598280873,6.6625639403615535,7.033601419554538,6.591359259542931,8.426398828553133,g
7.4553546024221715,7.173531003951018,9.20710076896883,6.8008349103690495,6.1314649038450995,6.340582230736679,5.787034978085942,7.650315629648664,g
7.268811569040496,6.8145514356042085,8.907655428279408,6.26811873891741,5.87135449372194,5.9302814574329314,5.26907308521047,7.189432530222557,g
7.388214189939558,6.824498656269741,8.914402159225451,6.036907876191329,5.972264451356231,5.90968289591248,5.185750623196541,7.160023925701661,g
7.682080189550777,7.096838994042857,9.176507604377994,6.055480991401997,6.331026850543248,6.172259456389353,5.475278728889796,7.451480351543255,g
7.892035762262968,7.429542378598734,9.494803243319582,6.152303984095712,6.7357241372162004,6.464711369936985,5.888326453048,7.816070325296219,g
7.806345318844703,7.660418693945507,9.64309164298015,6.163339468818798,6.9901809362304395,6.553181926480299,6.149159838388241,8.036979233934364,g
7.334255691974628,7.6780191770134705,9.4784102737014,6.00224726749711,6.998565587121026,6.371818590686527,6.145970700074232,8.054335375203916,g
6.5437015040310245,7.460842090084903,9.017740087955291,5.68709043488852,6.798628792924103,6.04566386191164,5.9916865876445495,7.962329286809167,g
5.649984673191652,7.150525068932872,8.435294247666329,5.326251850310948,6.535226838528603,5.78168136299296,5.903543965287823,7.898417117063867,g
4.873827574402806,6.968021933894159,7.944060624500696,5.036342290278748,6.363122928637355,5.721805132826462,6.011822782541932,7.926975223390052,g
4.26163629258161,6.9894243847913256,7.6384771458900955,4.8409858249810025,6.335628908354522,5.85957816373928,6.255992007782032,7.999642046249235,g
3.6850724198151967,7.071534524325065,7.442986582629811,4.6600525311830765,6.37987530275624,6.05642918416537,6.434129557832144,7.996158520986046,g
3.0240886919799705,7.031714676315744,7.205274444328813,4.401278147854662,6.3783692082572445,6.133798479728908,6.354369925572955,7.803225152598349,g
2.293468882738499,6.823312816034724,6.826690645714828,4.040671750702205,6.266907617213315,5.989041103657965,5.982122085663408,7.389788108880933,g
1.5919945786503542,6.51064590756444,6.32435237661299,3.6188918869523263,6.0695999776288385,5.667425910582173,5.48390787321039,6.841918556634694,g
1.0167460714682608,6.181868613022166,5.818051771352846,3.204097806387547,5.877813083267524,5.333849396495981,5.127741637345421,6.326698714949106,g
0.6545507680262559,5.944967234606749,5.466452781387981,2.8713583666850306,5.8005873159253,5.152061086549798,5.100551505826099,5.993995704474427,g
0.5570721386856228,5.893197146455835,5.357615386992525,2.6645685681063362,5.885463599457476,5.155911179376941,5.376028198253385,5.878069245441848,g
0.6448719369190183,5.962447752924893,5.406911178814143,2.531137870625273,6.043511430370264,5.209815767446487,5.732087619784432,5.868341418672458,g
0.6925453282922109,5.892222725230883,5.375550060062382,2.319817342675668,6.070782455645873,5.092467147916632,5.902532233865561,5.772306160491261,g
0.49476175095354924,5.450192408972091,5.03942412217256,1.8969493571052733,5.795146514426931,4.655274471836717,5.759620236161017,5.43913897960232,g
0.03752467929563388,4.678900017433133,4.365453457993871,1.2743577599467897,5.225358662490523,3.9521282283287404,5.413327646249475,4.874729579405957,g
-0.5340387633344824,3.841832339350893,3.524441605099625,0.6014481559465167,4.548001781314914,3.2340446484846255,5.153032265331268,4.261898869138868,g
-1.0836409233462085,3.154660064006806,2.73809385129111,0.031102259034486313,3.9717510909751246,2.781051682314016,5.239809338390255,3.839471023095777,g
-1.5796843549555812,2.6391518266826544,2.1107601528300366,-0.3989277759402141,3.567499246011238,2.6854034784936243,5.679830516024836,3.70904590363281,g
-2.0788264553903333,2.1871964117002167,1.5763072899317336,-0.777021921703892,3.234390053305475,2.777246067891123,6.175084414384306,3.735072012147074,g
-2.686028190296942,1.6611142045774254,0.9780433062375378,-1.240239680054534,2.800474817430984,2.7766383347026222,6.333125263445729,3.648027453922526,g
-3.490557980086183,0.9643956575987698,0.21859641434617988,-1.8623392840945936,2.1773743176545564,2.5408010328865793,5.980505386956667,3.272567707981564,g
-4.447776938800956,0.14260382882413053,-0.6261402295740538,-2.5673470440691126,1.4578201383933946,2.17925294278253,5.306501897810013,2.676043395694319,g
-5.3277050205697405,-0.5770227739570151,-1.3346076446014101,-3.150322608486808,0.8664927310371651,1.9390700293737493,4.707585093846918,2.1069871715629738,g
-5.862404573430089,-0.9599309147811015,-1.709986594559151,-3.4279941248848145,0.5812758783117952,1.9762795402218483,4.468074681305874,1.7856144981150446,g
-5.965086906750049,-1.010217751421785,-1.7406259267829434,-3.3932108334900897,0.5806649226718619,2.2164048833632055,4.542974720356705,1.7274179769165745,g
-5.7628157836712175,-0.9618711757343845,-1.589580541524751,-3.2095607780755993,0.6717060679695315,2.4125895120821057,4.609140046805659,1.7378994374939285,g
-5.432096818374479,-1.0122488111287289,-1.4383498263765293,-3.0564348367135183,0.6670949962205297,2.3423503851856387,4.332112361583026,1.573756362930089,g
-5.072898535388037,-1.1545092187765278,-1.3608251499627537,-2.9997708402105827,0.5245857144685072,1.9784648114793533,3.6318807751374846,1.1379230477474753,g
-4.7278047833740064,-1.2836496162921525,-1.3308974395438524,-2.997319993923734,0.329683526611693,1.4951903802088613,2.735320005585547,0.5501221509402198,g
-4.41490037141581,-1.3476782841832446,-1.3001495289459835,-2.973754581521522,0.18393794609910546,1.109772162955029,1.978292787728752,0.037365973249810634,g
-4.098387105852265,-1.3421669516262886,-1.2467485739864945,-2.870666747920006,0.12177534140253354,0.9027894964666862,1.534227924551248,-0.2528312058532059,g
-3.702730185964642,-1.2642404264024556,-1.1798976520927211,-2.668163142061595,0.09952543941598864,0.77583631525784,1.3054720116736882,-0.3468326267960548,g
-3.210854214409681,-1.1538742623401472,-1.1250105754399014,-2.3977327907715,0.03555785647492432,0.5694242232489304,1.0538537009864473,-0.37645518837844494,g
-2.296314225805184,-1.1588142602565354,-1.0743175620235366,-1.877110469661234,-0.35008466440642066,-0.21693562167510225,0.07884369804482858,-0.524200476716912,g
-2.032975069744461,-1.2379247789929038,-1.0314353253939974,-1.6652593485646545,-0.5554471721804438,-0.5901364873868225,-0.3975693652716265,-0.5624322827227051,g
-1.949817549839501,-1.2597764780586431,-0.9759271262403946,-1.4869171598447557,-0.6675523474803492,-0.8091671125139097,-0.6269422715300013,-0.511207695106219,g
-1.949817549839501,-1.259776478058643,-0.9759271262403946,-1.4869171598447557,-0.6675523474803491,-0.8091671125139097,-0.6269422715300013,-0.5112076951062189,g
-2.069125892764879,-1.2377423719378444,-0.9446232118317651,-1.3668957121208363,-0.6824209983510166,-0.8672666765440576,-0.577587180258342,-0.40565163364133844,g
-2.323635874307707,-1.2028469584278687,-0.9318104271630745,-1.3094466736760582,-0.6324251419104444,-0.8197942284374793,-0.3720057857554638,-0.33593059770938016,g
-2.5388093693635048,-1.1049768461304066,-0.8640171924215162,-1.2705434067278503,-0.5365996936167761,-0.7262616114814557,-0.19343805569928318,-0.3861335403977192,g
-2.5916583661083954,-0.907070252871463,-0.6852553156050109,-1.2182285207720933,-0.4101527248943402,-0.6142158228649455,-0.16379314718900326,-0.5858980567029087,g
-2.5703050098169404,-0.7313093248077904,-0.45514210558921653,-1.2034388548925299,-0.3026653897373329,-0.48906273891317237,-0.2861821880792084,-0.9085260082237218,g
-2.7092619288531345,-0.7885541381320138,-0.32843226537121206,-1.3280073758785114,-0.287773130703167,-0.36922351127098574,-0.4869342699504336,-1.306934873188743,g
-3.175967603888288,-1.166963690480173,-0.4345376762575984,-1.6440108618434528,-0.4114936781766949,-0.3000819145825576,-0.6991338728685992,-1.7445005609593616,g
-3.953979438273575,-1.7764723804967306,-0.7848889640231321,-2.1089353094947536,-0.6688417486229385,-0.3243078214950144,-0.9027185879726998,-2.191209340747724,g
-4.878656549383745,-2.476668787816921,-1.2720571792206978,-2.622514158463746,-1.0223382018584573,-0.4404699027780478,-1.1030566982266874,-2.604233874594265,g
-5.7095877311430865,-3.1584411208007888,-1.7288806602544227,-3.071871131982578,-1.4191601847140234,-0.601454182497761,-1.297251147536721,-2.9312315868308447,g
-6.2203184711566095,-3.728505657609572,-2.015551781473948,-3.361785725899547,-1.8026872682218333,-0.762196225477736,-1.4670139344400586,-3.1386925343603407,g
-6.349913924980771,-4.155132016398707,-2.111878194219498,-3.464345117203073,-2.1489314789952596,-0.9326246753269587,-1.5909798334580887,-3.2316712799734773,g
-6.293133027716232,-4.553541340616967,-2.141799028874625,-3.455234727548203,-2.500292231415859,-1.1847709584943507,-1.6588604266355618,-3.244890144669488,g
-6.348676343626581,-5.099440078114534,-2.268411108205794,-3.4570062530186667,-2.928971949775419,-1.6015568725214737,-1.6832491160089056,-3.2198319047782404,g
-6.630815234546669,-5.801350860067732,-2.537612903822331,-3.5219178598663397,-3.447734738735688,-2.201473177216567,-1.7021598245803324,-3.1892021607337067,g
-6.97459210012705,-6.4496641116869835,-2.837046153355405,-3.5948964246293853,-3.9776450654118647,-2.900160508464682,-1.7648976582040177,-3.176344392866455,g
-7.136256644786203,-6.843242307808609,-3.0158140487144482,-3.602325658747271,-4.421350593327702,-3.5550974209695085,-1.9175302247254593,-3.2104890994771886,g
-7.030170666476165,-6.990728360090401,-3.0284224766213974,-3.545596085682706,-4.755765579255428,-4.072871000058961,-2.2084844050305037,-3.3485857044571583,g
-6.766720082793235,-7.051813025669785,-2.9634595103163894,-3.492020847416677,-5.0440129245832175,-4.485758671343474,-2.69234520496342,-3.672407684835233,g
-6.541902977793046,-7.173075765894451,-2.962094029404851,-3.504080112069454,-5.3714187909251425,-4.913089009995492,-3.3901247849009835,-4.23581171040963,g
-6.516734978304737,-7.430436364321676,-3.1139745951738496,-3.5929482667570953,-5.771739202630971,-5.430731813286399,-4.225328164592424,-4.993607492558007,g
-6.713302514287146,-7.822670705354116,-3.391538764181662,-3.705518833767787,-6.184867640025764,-5.97209376054681,-5.0194545365692,-5.786229773288184,g
-6.963229426762178,-8.226063432220318,-3.657537768552899,-3.732378584968938,-6.469102492584307,-6.360339916111628,-5.5862945595956175,-6.412621313546926,g
-7.018522289764682,-8.43429560851871,-3.7636204288504174,-3.566958140603469,-6.487194858211813,-6.445571620920698,-5.849551967508664,-6.736960780296082,g
-6.784357012939222,-8.3542297698775,-3.677984324616419,-3.203068804268176,-6.220547734721015,-6.224600806535006,-5.870556860448045,-6.745791136139509,g
-6.410051085800703,-8.121884903385721,-3.509946637872008,-2.7607879277688943,-5.79380316475074,-5.841249216357014,-5.760334263794563,-6.523203954726509,g
-6.099281119258922,-7.93214809029016,-3.3857561586900125,-2.377365996659113,-5.358285770872507,-5.46730845554386,-5.558045542333145,-6.17314531930276,g
-5.869168810582788,-7.788962153704136,-3.3051622904346516,-2.07405173704555,-4.948987506600406,-5.159731114913782,-5.182428860218348,-5.742663048786119,g
-5.5492959035082015,-7.511164556437928,-3.135569894677844,-1.7532228002113097,-4.4723979498067505,-4.813135350169615,-4.504127971788241,-5.19927268868984,g
-4.977284587333925,-6.949507843964301,-2.7379866737656604,-1.316864844835075,-3.830601997315911,-4.256426398185953,-3.49338415689786,-4.488806678292095,g
-4.1365458456218285,-6.107150596320276,-2.0884387032848766,-0.7668898006422656,-3.0425704709906514,-3.4177160339084267,-2.3213408924402934,-3.633986703989849,g
-3.1476966688318813,-5.0868540878118695,-1.302156166798607,-0.21116263807433439,-2.2554439139897933,-2.4101935865267174,-1.3039925285250016,-2.779663287065678,g
-2.206888616375569,-4.037104489223604,-0.5712177618253961,0.19054113790374833,-1.6591253541469846,-1.4592470215812612,-0.7056910595776011,-2.129333843949274,g
-1.5021959003323144,-3.1335131564497622,-0.05952493108827901,0.3043186545372477,-1.3726335741590154,-0.7416116188985564,-0.5603061495377404,-1.8243815003965005,g
-1.0856817396522676,-2.4782320530666704,0.19728708884199864,0.11017655171808598,-1.364738150985215,-0.28169957686321095,-0.6640287553933084,-1.8675345656477162,g
-0.80884632631172,-1.9836365086720236,0.3153678788073355,-0.260174596339639,-1.4658622859502546,0.021876458469476213,-0.7384963536828962,-2.1353804066961564,g
-0.456441439387466,-1.4549695454776153,0.4681749445515052,-0.6041496134544693,-1.4868670552554857,0.28723762707932254,-0.6252694230618289,-2.4501116701581753,g
0.029617435850956487,-0.8272337151827559,0.7449376862011444,-0.7973439076211394,-1.360182201671699,0.5512951018934154,-0.37775690874210666,-2.6665962230983244,g
0.4955942658225229,-0.24744414947960328,1.0885782679415574,-0.8691485819339823,-1.1763408167093743,0.7412868059206796,-0.21312591461337443,-2.7441632034174166,g
0.7277715257333366,0.09028690007053959,1.346049300482314,-0.9519311656520857,-1.0934108546721997,0.7208962047288906,-0.36900576405351887,-2.767456856941565,g
0.5926264457599755,0.0968814506447571,1.3538582477471355,-1.1882194139627353,-1.2243133200359035,0.3756015036423156,-0.9521362224168725,-2.889934875347405,g
0.051589138288031355,-0.23568787420352383,1.0034686932158614,-1.666181362213615,-1.5896066374328657,-0.31891232733282787,-1.8733755353669626,-3.226440228106843,g
-1.8351156922367502,-1.6394894345639053,-0.5651056179662046,-3.076284195599808,-2.63751078941867,-2.3534611523088964,-3.823362803823734,-4.3431647435233,g
-2.6111019430360103,-2.2460785301571957,-1.2991933125989603,-3.492643543137997,-2.9352133720744398,-3.3291597523263095,-4.465987137803237,-4.709245753341213,g
-2.8848558663060957,-2.4346432132701468,-1.6247916477338076,-3.335570239793133,-2.8335047636546316,-4.0092670079910295,-4.7847809515751685,-4.6268408458694905,g
-2.884855866306095,-2.4346432132701468,-1.6247916477338076,-3.3355702397931326,-2.8335047636546316,-4.0092670079910295,-4.7847809515751685,-4.6268408458694905,g
-2.625795546548452,-2.1817355452102283,-1.4671621068012775,-2.564829950039221,-2.306337461557812,-4.278830989591407,-4.816731133478647,-4.008761735753065,g
-2.017517222327011,-1.644919693145799,-0.9785478590670145,-1.4014222515527743,-1.4903260536021619,-4.18151339704456,-4.663797524053454,-2.983335381145501,g
-1.297939354465247,-0.9893944502981057,-0.412327416978098,-0.18061230988096794,-0.5934823235521118,-3.9037623281438676,-4.437714927795725,-1.8219680914708931,g
-0.6324131688857968,-0.3162864326713736,0.05634605589772059,0.8475545402118445,0.22967861642096127,-3.6480965697360452,-4.183238823826395,-0.7588860109570241,g
-0.04383074012298689,0.33211232301895477,0.4508989956573819,1.6493784094849804,0.9633085359414387,-3.487912540682314,-3.84647220741237,0.15206252815559917,g
0.6142013361100245,1.0134294559198416,0.9801860297022834,2.403852169638803,1.730608467477127,-3.3235702023687836,-3.3248451183729357,1.0235552569981519,g
1.5544568953999196,1.8784433290618605,1.8725770639546533,3.3431789168145736,2.686794893147577,-2.9725511851409827,-2.5501324535703978,1.9890032919501195,g
2.816015177733867,2.9872620081063,3.15041203393655,4.5182685873417965,3.8509181799586707,-2.324337886950331,-1.540388147608845,3.0542607113153095,g
4.122919625151523,4.1313576674846155,4.537574913763621,5.686779488340596,5.014676837810252,-1.4528003211231642,-0.41430346772970383,4.052148726260804,g
5.0509231739773295,4.942695063204898,5.612025840679885,6.457839786649467,5.83686503653709,-0.6064877033764766,0.6170121911166773,4.716576819628402,g
5.346398109749212,5.191527744580353,6.078664518129244,6.574814323640956,6.055681319142799,-0.07332230171063164,1.2989854497596105,4.823473076896363,g
5.0555526530043515,4.905697664524178,5.9178667719087885,6.071919328274355,5.63068194694047,-0.012455002041420471,1.4356123849179556,4.3118449010589925,g
4.389492557907375,4.227700048392608,5.312230789479783,5.193843226206686,4.715989805999577,-0.38292554226467407,0.9926214097522117,3.3080422712747497,g
3.5488149131386253,3.2788687215854173,4.472588537649772,4.2083467073645116,3.5372433197932636,-1.0149123888071283,0.12403572808336585,2.046189131228627,g
2.6596890823032355,2.172641170293244,3.522660720089381,3.2791374133808056,2.286616819891506,-1.7386703489259336,-0.8990652194385161,0.7589040195287775,g
1.7661322026131774,1.024947490426802,2.4875699395129525,2.4392659859652857,1.0729770762223876,-2.4564396696862927,-1.8150862138794461,-0.3869430180929874,g
0.8345020502815108,-0.1176378899692696,1.346142632816014,1.63052183743382,-0.08411090664981283,-3.136517481883355,-2.496761613337762,-1.3107005635834112,g
-0.18501284684970792,-1.28618039985866,0.09441334903491586,0.7785822540693539,-1.2226066443106571,-3.7910566630824882,-3.018700793766395,-2.035423436590268,g
-1.2813740823584219,-2.488334234244456,-1.2317846483154182,-0.1454960571826704,-2.3898419043163712,-4.472515216126707,-3.6121113561123286,-2.6940388045544017,g
-2.4109232735434736,-3.6761908722553733,-2.5963933222501874,-1.13343009353628,-3.616416105012951,-5.255410980923041,-4.499858830719789,-3.470506174915971,g
-3.5900683738480454,-4.837715575745319,-4.003252113892691,-2.1862462188487144,-4.907171126593461,-6.172008780066623,-5.706465562386073,-4.4716652303205695,g
-4.865453233622105,-6.007221838817884,-5.4524032979752,-3.300643993981398,-6.206452720101002,-7.1379538471339234,-6.9905313409096435,-5.617118135179589,g
-6.160732768894169,-7.120637181478273,-6.847403201155059,-4.395406987836553,-7.3579965548844966,-7.943763119538185,-7.970654499494836,-6.650756809378331,g
-7.245466205164826,-7.967415463072427,-7.995504568036661,-5.309897426316188,-8.15309187151003,-8.351349916905399,-8.368280107083303,-7.292214039367525,g
-7.930232405917995,-8.393582171842844,-8.747384354749087,-5.932626250153641,-8.483144787354131,-8.252454555128557,-8.200129119098401,-7.434924381788147,g
-8.24924112433238,-8.495408734205657,-9.130588401428538,-6.317369269675785,-8.453464749795994,-7.776748871710732,-7.780820034554223,-7.242559056589381,g
-8.394311608826177,-8.514637757391373,-9.315449560302339,-6.6270845919856045,-8.312108283862026,-7.2394528636874655,-7.515329501604883,-7.0435222011135235,g
-8.500448528114266,-8.572961772563152,-9.441784236367454,-6.954725356065865,-8.23819183254933,-6.926361332597374,-7.606830250698421,-7.071450345482333,g
-8.530111519962327,-8.57723359946667,-9.479147948327206,-7.212172612865558,-8.183856130457013,-6.87087712158926,-7.891906345802779,-7.253685796244848,g
-8.314534255560881,-8.336654389527713,-9.242507813608704,-7.187530438844789,-7.907582129333461,-6.826914894078177,-7.951585556531387,-7.249874328185103,g
-7.663884857954079,-7.701156505728697,-8.54704473548413,-6.711047458662539,-7.171472566356158,-6.488653610489576,-7.437014047279611,-6.737778182857125,g
-6.510032124433209,-6.6576846053933165,-7.393609245937569,-5.812298905573295,-5.961690845612739,-5.775715706917138,-6.356282831667805,-5.7083702182105,g
-5.035361843077616,-5.413670138051424,-6.043503691957137,-4.761174387442738,-4.568585583920731,-4.929156071113883,-5.085177844921248,-4.509432507260001,g
-3.6277026071688994,-4.348187894101666,-4.88637834543135,-3.924865304245036,-3.433024638022772,-4.3317159525474045,-4.0919655242377555,-3.5973029553061124,g
-2.6038579156207295,-3.7332534411365392,-4.169365225317334,-3.506412508157326,-2.84173921706476,-4.207362230427021,-3.6004455126601256,-3.2055866371737354,g
-1.957873765831628,-3.4721149174250647,-3.8225813348086555,-3.3900506218784265,-2.7239024990504364,-4.44862140705189,-3.457838568685542,-3.1980847232718603,g
-1.4321505950712967,-3.2059023687513686,-3.55982886898464,-3.2683609873935437,-2.748222849378986,-4.7065216535375916,-3.306584144767121,-3.2150961394048223,g
-0.8286559688663097,-2.7023766110165908,-3.1603977230177387,-2.9407283968802833,-2.6360026681525106,-4.668454647473587,-2.919474423349276,-2.9886144342631864,g
-0.1993865697001221,-2.071837079030636,-2.6589596109077154,-2.4851612878206604,-2.3939724843626435,-4.303830914699959,-2.4227009050693376,-2.569149114674866,g
0.2391379409287447,-1.6141137617671777,-2.2914986818671146,-2.158863944470457,-2.273282600152906,-3.883245153408037,-2.2145080109523265,-2.2792918133629287,g
0.2931160852452191,-1.5581285572003236,-2.2888592899441074,-2.166291879877695,-2.533811676714795,-3.761840611262948,-2.6422565421373267,-2.439689284182169,g
-0.0914167221242784,-1.9467154966742897,-2.698619879855428,-2.5062165559543557,-3.227863954343147,-4.111630543837045,-3.7120897120731406,-3.1060245153131816,g
-1.4782146465508084,-3.2776353113821797,-3.8977478551168354,-3.2837546234224226,-4.930746610539073,-5.577059800679693,-6.245596126554118,-4.852682762493176,g
-1.8926675185612054,-3.5838844141920183,-4.125971982147286,-3.240597306062857,-5.3059715062812325,-6.132027809045593,-6.941596545416684,-5.331056003498121,g
-1.951607206569329,-3.4745042198536886,-3.995092140866183,-2.86418513054776,-5.234407233491134,-6.390743745816177,-7.15283605814669,-5.450319068758016,g
-1.9516072065693293,-3.4745042198536877,-3.995092140866183,-2.86418513054776,-5.234407233491135,-6.390743745816177,-7.15283605814669,-5.4503190687580165,g
-1.8304533170581103,-3.1784802117980027,-3.6868747927680614,-2.3515111415503442,-4.913787621041815,-6.445390832541582,-7.076122915155897,-5.355020212316392,g
-1.7420454466559954,-2.9733259930129967,-3.4232905218031604,-1.9045720801642976,-4.598479643519591,-6.462594327812996,-6.921450734482806,-5.2045988791498425,g
-1.7420546119858522,-2.9317289607325967,-3.300200003761772,-1.5885235352243643,-4.4208098262206015,-6.545853969956961,-6.772543950753976,-5.060218209353508,g
-1.7499565746345496,-2.9438780481150197,-3.2582585049962427,-1.3384430553320752,-4.350955219555284,-6.657924305363677,-6.573838393986486,-4.867179807136861,g
-1.6761463167830353,-2.885984598106456,-3.165573707346069,-1.0547074232614542,-4.275071849683942,-6.653322718569179,-6.219265931592135,-4.525765057581326,g
-1.474405199671953,-2.6824815321146764,-2.915486381238856,-0.6732279900729411,-4.091430855623727,-6.391533957023296,-5.654834190847138,-3.988979529362145,g
-1.1385133764551079,-2.2940650676422836,-2.4936561256399887,-0.19442046737592783,-3.7766347242461165,-5.83861444141569,-4.918237296311934,-3.3130609997979876,g
-0.7188977903276921,-1.7723787365520571,-1.9953804327204057,0.3044620967925059,-3.4118290472040207,-5.081260455057628,-4.105686498819342,-2.625827217944529,g
-0.2921552316642452,-1.2856692295245824,-1.557337003792309,0.7078820112248013,-3.136674362308033,-4.258609683807856,-3.3152621480831757,-2.043376906600341,g
0.16171371913440377,-0.9698851968682762,-1.2288432669176506,0.9645194941988224,-3.035045156807188,-3.4804962127463392,-2.61564790741945,-1.6047044806275597,g
0.809438315328465,-0.7663277322344321,-0.9128154002027603,1.14828985574968,-3.0559911197874405,-2.7933578667306205,-2.0440869561761206,-1.274095865081085,g
1.7995918978386016,-0.5033659242731966,-0.4641051733365954,1.379013387995808,-3.065706809723758,-2.2016013417263993,-1.6085568166840603,-1.0021447570703357,g
3.0548127162623695,-0.12082643763945926,0.15543258805801813,1.6850037612350033,-2.9733481719804016,-1.7072172201319222,-1.2831235752678447,-0.7872268338294637,g
4.299080391426896,0.2869832666393335,0.8413897655571032,1.9793282716841518,-2.785555434450437,-1.3230419706902452,-1.0087013628802168,-0.6783179383578621,g
5.28745228995283,0.6307443006652778,1.4531462918549873,2.169233798853198,-2.5514193027549976,-1.0471748316861658,-0.7114308193853678,-0.7116540737776861,g
5.953360620005023,0.9037433408810822,1.9216684570526206,2.251770466624928,-2.295807911495072,-0.8351949948450695,-0.33743990833705123,-0.8412593654643212,g
6.355610302490496,1.0893097993482004,2.256427362989382,2.2996472540033346,-2.0168192597741426,-0.6220873094765361,0.10776996927262732,-0.9425648978738087,g
6.567819923873769,1.1141214081730193,2.485599422467756,2.389223299221181,-1.7184071434645425,-0.39259998240763755,0.5393646934998176,-0.9045708737405462,g
6.620194722326765,0.9393377473044884,2.6034821999545024,2.546280038978857,-1.429175496663945,-0.22553212586210103,0.8227982185776093,-0.7309695775615366,g
6.463876379059528,0.6094550104305227,2.556544112328486,2.7237229586672087,-1.2034216825755697,-0.24244348021495363,0.8535677580172882,-0.5471936367665321,g
5.9782373340534445,0.17688175003269743,2.28134453195555,2.822738424009084,-1.1030907616321213,-0.4911953864563995,0.6330154322289158,-0.4953132078158046,g
5.099762626722744,-0.3318258066990088,1.7865668690012018,2.7754552936788484,-1.1493497421317245,-0.8789841057696781,0.2734147243091269,-0.6083838577421742,g
3.9780579052985816,-0.8438219163345165,1.2013358969688117,2.6252654220289457,-1.2836316784351518,-1.2319847402014399,-0.07541513594521596,-0.7783571925658948,g
2.93067810565262,-1.2454308362697355,0.7030782282709935,2.491817869161789,-1.4094973136092719,-1.4346236229881923,-0.3191985632977258,-0.8492095604034603,g
2.1959130045532804,-1.5242836393011936,0.3744094526139976,2.436568287781697,-1.494719160226936,-1.522645487439105,-0.4683341053625754,-0.7587322098718492,g
1.7744545318397669,-1.8072035137100997,0.15360435587705665,2.395991041226142,-1.6084723136797265,-1.6455472719538815,-0.6200360730317007,-0.6073650639047609,g
1.5299431517793183,-2.1696731616003717,-0.05824026573366005,2.2721802734906666,-1.8335671707331163,-1.9296933211242309,-0.8861574144901019,-0.586506020927657,g
1.3638748862212575,-2.4848798912007988,-0.2685738043573248,2.05698989899428,-2.158766726414385,-2.3611482459082405,-1.305109628537946,-0.817517229990834,g
1.243793036585291,-2.56000112562714,-0.3935164691370764,1.8337255516281696,-2.4807062187917195,-2.794532191776836,-1.7991860869624194,-1.239864327140215,g
1.1410210390801017,-2.3720871483709596,-0.3616992801565013,1.68117981215662,-2.698832653883099,-3.0850723558202278,-2.223105076531159,-1.6515465830816236,g
1.029734020193112,-2.0831058328356358,-0.19068799150256002,1.611283213493245,-2.789511199393168,-3.2240659668395475,-2.474849256028149,-1.8665586859135428,g
0.915522691189571,-1.8705574015339472,0.022053748876055428,1.5812424748991287,-2.806818488379619,-3.3478954154104144,-2.572993959063249,-1.8480309283677347,g
0.7989353903735857,-1.8270704690552186,0.15820198652393194,1.529157503465371,-2.840381135709079,-3.609580626726326,-2.6308144854138797,-1.7086754023907527,g
0.6423583264948686,-1.9618433628274083,0.15066498411041804,1.414056822936955,-2.9562648089323167,-4.032469945312039,-2.7536169041391894,-1.5967100466550126,g
0.43702407019826806,-2.173824618450566,0.04018330270627613,1.2654109201359867,-3.135160071079061,-4.474653093054833,-2.9467619018323403,-1.573219303590014,g
0.2694348832273963,-2.2490946477585068,-0.03915333060561983,1.1883160324150783,-3.2604609667926163,-4.723739446837238,-3.101129712285717,-1.5731369587679669,g
0.24390030466346685,-2.0193152995507697,0.03474410993300876,1.27486424622616,-3.198776772070684,-4.635645549882765,-3.0653543275172455,-1.4693689191966062,g
0.35258559468134143,-1.5463865522162732,0.2659208291374532,1.4984037360910007,-2.9123192987333466,-4.215400508172549,-2.7626502746597423,-1.1890231244324017,g
0.48844146486233997,-1.0623234181499042,0.544801019721462,1.719772801261478,-2.4889564087102363,-3.59575774747852,-2.2711198397209884,-0.7927663571406471,g
0.56962319105663,-0.7210540070738968,0.7458963630044024,1.7999953838859817,-2.0682724719534358,-2.9409363819771293,-1.7886202861190945,-0.4467798237837023,g
0.5786613562088455,-0.4955676746351359,0.8039019645644825,1.6888757511217023,-1.750042151574133,-2.348529464443871,-1.485787324798991,-0.2993375338523809,g
0.4953897913234814,-0.3084884368426574,0.7174972150115171,1.4235255941892213,-1.552886800404493,-1.8202646943898095,-1.3657723246701283,-0.3631339283226672,g
-0.029991684170379385,-0.00021922758806077746,0.2927830833135933,0.7822393106592783,-1.2512935906665992,-0.8356053510033281,-1.012909280646859,-0.5596007690965574,g
-0.3661661494386409,0.12416854859257218,0.05677438154122707,0.5482878703947185,-1.002566969464814,-0.4491896062345841,-0.5771315597663158,-0.43564918875335146,g
-0.665584837198782,0.17944748805550326,-0.19737445285156663,0.33330473264197014,-0.7357405989916105,-0.25656342727064557,-0.10233060856538674,-0.17763681709536966,g
-0.665584837198782,0.17944748805550323,-0.19737445285156657,0.33330473264197014,-0.7357405989916105,-0.2565634272706455,-0.10233060856538674,-0.17763681709536971,g
-0.9225542862671853,0.07607282036212883,-0.5134856091012028,0.027077070637528778,-0.5877025404874068,-0.31061551556151956,0.22511389903753312,0.09777208965291026,g
-1.1035572624340202,-0.15737496372466264,-0.8763864128607131,-0.4049947859271371,-0.6318792647505506,-0.5677029663256306,0.3368152363757613,0.30097915410121867,g
-1.1199939668364696,-0.31985246002018547,-1.1768744633957644,-0.8488303873747544,-0.7870184111077322,-0.8951043148305347,0.3447769463489952,0.44063055935641965,g
-0.9167467633375734,-0.21674675129240226,-1.2797344913770816,-1.1158020373399302,-0.8719380657877215,-1.127824693032371,0.4602694173797288,0.6138777833496144,g
-0.5159953173317202,0.17054659663800223,-1.1107282763476358,-1.0725460379081668,-0.7374888051686896,-1.1390175675632377,0.8401845079206189,0.9242569559262132,g
0.07364566685485299,0.7535332342146164,-0.671009414884329,-0.6964843012206245,-0.3421465802720123,-0.8791116224442815,1.4921706085886859,1.3988222665393528,g
0.9236513731324898,1.4918774286687944,0.0005623513409939828,-0.052240938691483566,0.2653698429816418,-0.3611551410362047,2.3163586725121736,1.9800039310224853,g
2.096248315844173,2.3905912988156586,0.8524409783692114,0.7483825596756117,1.0009451852026445,0.3808234025388527,3.222919927333689,2.5901489008011738,g
3.5293104047079753,3.4046138824415344,1.826140759373935,1.591314967546564,1.7888962225723521,1.3052982823079335,4.181424051674664,3.1879556122767965,g
5.059025275207526,4.439894994294211,2.859436110230873,2.4109168480171954,2.5747218957082003,2.3290043183125695,5.143134383219427,3.7537806467217423,g
6.511362329402937,5.400591092532407,3.869616906833857,3.1926818981727094,3.2948001554161848,3.292384450698937,5.944556476839803,4.233995185180073,g
7.727546126351008,6.147506048627116,4.723142930669339,3.9060028314322226,3.8348989370762974,3.988414397666177,6.340219028201691,4.524850843441884,g
8.574833776709863,6.477380621522874,5.262714819436857,4.4594628094196755,4.058265175141235,4.257461095438737,6.166825850283119,4.526642392652466,g
9.033074877227794,6.284864564303827,5.4161052090946695,4.761195303135084,3.9191445696788647,4.079042630411494,5.486400891672579,4.218839814284553,g
9.245801128474769,5.739698461199259,5.275931236960367,4.809025874497168,3.540806883004077,3.5853739235852204,4.568534073549714,3.6864012330304012,g
9.393781133904461,5.183928121108322,5.0352629465630425,4.680735648188247,3.1385251149749354,2.982023943705833,3.718004046957526,3.072462153103632,g
9.514941410585113,4.831495726881698,4.834769074801668,4.444218913905297,2.8478997889864717,2.4289323044995883,3.0787374868035853,2.490241057115796,g
9.507840666357106,4.642496903592017,4.682326240000797,4.1193642324295014,2.638096010412494,1.9612666255045994,2.5599459370851667,1.9577729136950068,g
9.292732628356399,4.470732158399003,4.500747300902137,3.7241242709189444,2.383835682746999,1.5021986628430903,1.9440907738387074,1.4073799664369364,g
8.895014376906548,4.219407816760375,4.218086316144695,3.309701239597614,1.99779305948583,0.954602195577829,1.098921797615744,0.7664617463904817,g
8.390691857574636,3.854506182393012,3.8243924752992284,2.9388106049553864,1.5042816339765364,0.2986289028889687,0.1200222848823036,0.04431388042605402,g
7.871364133043597,3.409966008032091,3.394552102944503,2.667049718385722,1.029312305653915,-0.3806096207988518,-0.7207561563934679,-0.6452294768195308,g
7.476013451320213,3.0363893842607212,3.07309292125485,2.555500709785961,0.732430017728924,-0.9495719815207376,-1.172417924215846,-1.1353263944903746,g
7.355163441985276,2.929768898553621,2.994739366637296,2.6578510653215646,0.7067185803600919,-1.3149098835064705,-1.1751383754604408,-1.2883158640230523,g
7.54746891826103,3.1291490155485318,3.181973551170406,2.9676363651644313,0.9056661527543757,-1.478926329505891,-0.8819200204769647,-1.0675480321162554,g
7.94262503533824,3.452772699665533,3.5251004350897275,3.4047677708924695,1.173770047837277,-1.5289377960261938,-0.548789861193897,-0.574543330529413,g
8.394675670755637,3.6943203563255396,3.8740976008607815,3.8784126063278053,1.3733234462068538,-1.5648369766535752,-0.3783805357380633,-0.017124823176219377,g
8.816801859845375,3.819708740972371,4.1441949416841934,4.346630915132905,1.4929992862056936,-1.6010752475900039,-0.3844801508881407,0.4129193809416526,g
9.147028699015356,3.930190810183599,4.342354816921505,4.8049646636130605,1.6466843732772432,-1.5085780794740256,-0.336740514831151,0.6903160549316703,g
9.305161915708911,4.1249942162506645,4.5290358441756675,5.2484300034652085,1.9885540040454732,-1.0583294710432876,0.1491481138516831,0.9981335196900807,g
9.24119469242525,4.467770358535518,4.765352257569356,5.663028631214093,2.6168827905672023,-0.06336634096843845,1.3757224771094385,1.5842958243404763,g
8.96651216232711,4.9838208435700535,5.052428264494572,6.0163494608044426,3.497298088054503,1.4692660856117388,3.3152436492997794,2.5272489078193203,g
8.478893483902583,5.567732252293119,5.281690508765914,6.221732686085148,4.431459419425954,3.2883395122222536,3.8938757598748843,3.6122958506349363,g
7.712578259537656,5.949498310228944,5.267543054435295,6.1460559388224505,5.129917168682108,4.995333249474743,5.793535681037103,4.442951946092452,g
6.634297178028737,5.88291865457152,4.879025948035432,5.711134543082345,5.385799198822769,6.231054444008987,6.906476465622342,4.716537286748158,g
5.350058143018007,5.3672007368929355,4.152030093086454,4.989704273878326,5.2105339678948095,6.830935056668585,7.182653468116975,4.448662955460682,g
4.04477304068798,4.607000072873189,3.2588390638304494,4.165405056317782,4.790652591262664,6.846524016569657,6.92970488442996,3.9560218591773606,g
2.843012853207437,3.7879170772152477,2.374956067027296,3.393670160083778,4.3085522949855894,6.427787495133009,6.494418957927695,3.5944125201679062,g
