Fz,C3,Cz,C4,Pz,Po7,Oz,Po8,Inst
-7.114522438030048,5.983105589606678,-14.68849662869709,-11.97265143706843,-9.36679628981788,-3.9270747364234766,0.526702441901757,3.8704448300729197,g
-7.114522438030048,5.983105589606678,-14.68849662869709,-11.97265143706843,-9.36679628981788,-3.9270747364234766,0.526702441901757,3.8704448300729197,g
-7.114522438030048,5.983105589606678,-14.68849662869709,-11.97265143706843,-9.36679628981788,-3.9270747364234766,0.526702441901757,3.8704448300729197,g
-7.1145224380300505,5.983105589606678,-14.68849662869709,-11.972651437068427,-9.36679628981788,-3.9270747364234766,0.5267024419017567,3.8704448300729197,g
-7.114522438030049,5.983105589606678,-14.688496628697086,-11.972651437068427,-9.36679628981788,-3.9270747364234766,0.5267024419017569,3.8704448300729197,g
-7.114522438030049,5.983105589606678,-14.688496628697086,-11.972651437068428,-9.36679628981788,-3.927074736423477,0.5267024419017567,3.8704448300729197,g
-7.3025955834776735,6.3598817461169075,-14.430805232943005,-13.306752247470683,-10.524697356064125,-4.509884139282638,0.5191234390658914,4.3674456625198355,g
-8.267946398038504,5.918360712589519,-13.139613836466172,-13.985907382188222,-10.83565054032442,-4.5361155809411375,0.9148731802436666,4.93322436882606,g
-9.159644344928351,5.030540018394036,-13.190529194505407,-14.24468082854143,-10.619795418152759,-4.172854860287105,1.5446171112955127,5.5109239023956125,g
-9.97953081222864,3.7312698034977765,-13.176583855245772,-14.528221792568164,-10.418603250572998,-3.7658880696177115,2.1170243811349883,5.971937691155896,g
-10.729447188020787,2.0543880365112894,-11.602871250005206,-15.183779326721558,-10.624667451218492,-3.6086681704046946,2.416933864961166,6.2238890345147,g
-11.411234860386209,0.03272051468835425,-10.37215851186101,-16.24221778247479,-11.252650552798872,-3.76500981144385,2.4168608029201617,6.268788635304025,g
-12.026735217406326,0.03432269740467549,-9.206609914327696,-15.53305453173596,-12.022676873832216,-4.07286321560785,2.231241247718393,6.1672851256921835,g
-12.577789647162557,0.03567238382237201,-7.804584936705405,-14.65027685135548,-12.64537672473779,-4.307232919858757,1.984769071283931,5.959107966816651,g
-13.066239537736319,0.03677970578685691,-6.033459093688313,-13.467972638194329,-13.040948975468643,-4.360106816112179,1.7225883715645107,5.625656672086335,g
-13.493926277209031,0.03765479514354329,-6.043647947808463,-12.023724081190128,-13.344898480609041,-4.304318564597136,1.4225041621024774,5.1279373224287585,g
-13.862691253662112,0.038307783737844235,-6.056872522332272,-10.461726986500068,-13.76423593142773,-4.314126218098759,1.0674620597410711,4.475120519652612,g
-14.174375855176981,0.03874880341517284,-6.083758501648685,-8.920053188173565,-14.418173725263722,-4.517240525715783,0.6975002252104215,3.7530475069396525,g
-14.430821469835058,0.03898798602094218,-4.180344401975548,-7.436032835212285,-15.250557471220109,-4.89113518731031,0.39423318268676655,3.0813134041065866,g
-14.633869485717758,0.039035463400565365,-2.3319385515023536,-5.937140477720251,-16.062595794206157,-5.2819294375225105,0.21249297632793218,2.5306566015542646,g
-14.785361290906502,0.038901367399455496,-2.4038482191682053,-4.323391146115313,-16.662458644727487,-5.531107314157113,0.12103456410401939,2.0708746470184565,g
-14.887138273482705,0.038595829863025635,-2.4860269877362033,-2.5609418313123364,-17.019591736150897,-5.601990706200519,0.013155702869138742,1.601060175051527,g
-14.941041821527795,0.03812898263668891,-2.576123755397032,-2.616575083470567,-17.272652675125507,-5.59435115157908,-0.21232347626842968,1.043437305134205,g
-14.948913323123183,0.03751095756585838,-2.6717874203413747,-2.655989023384139,-17.58074214396657,-5.639843600248197,-0.5681764166871776,0.42034704055032746,g
-14.912594166350285,0.03675188649594715,-2.770666880759916,-2.678858687293834,-17.97545774560004,-5.7792466962881175,-0.9647847922150113,-0.1512343905307133,g
-14.833925739290526,0.03586190127236831,-2.870411034843339,-2.684859111440434,-18.34669650600211,-5.925848034199774,-1.270408485647149,-0.535503410213905,g
-14.714749430025325,0.03485113374053496,-2.9686687807823295,-2.673665332064721,-18.533966798663837,-5.93315964791982,-1.3942398444869963,-0.6583432395786597,g
-14.556906626636096,0.033729715745860187,-3.06308901676757,-2.6449523854074757,-18.42456346994463,-5.706813279269369,-1.3409429668505708,-0.5446142567396008,g
-14.362238717204258,0.03250777913375709,-3.151320640989746,-2.598395307709479,-18.015793495937046,-5.2812527967987695,-1.2134057314496003,-0.30726774674867885,g
-14.132587089811233,0.031195455749638744,-3.23101255163954,-4.415718401439244,-17.429815070981977,-4.8076215900163035,-1.159896429473314,-0.09810327602229915,g
-13.869793132538437,0.02980287743891825,-3.2998136469076362,-6.1014435485829095,-16.850410704668125,-4.4551069618318255,-1.283725183320052,-0.03182360380096072,g
-13.575698233467289,0.028340176047008704,-3.3553728249847206,-7.812560732399861,-16.398497083255343,-4.297363445735917,-1.5684355422063028,-0.11706488104220611,g
-13.252143780679209,1.9760895363347015,-3.395338984061474,-9.644728484410845,-16.057824365328862,-4.280877534809621,-1.8823685965042576,-0.24766584786081441,g
-12.900971162255612,3.7526272153847033,-3.4173610223285835,-9.596450330383243,-15.73570246450584,-4.30557374190322,-2.0763752778437126,-0.2785637860311553,g
-12.524021766277922,5.3585493344073996,-3.4190878379767318,-9.560591211848248,-15.38831871559869,-4.340741531088292,-2.1076374260007187,-0.1413491821020192,g
-12.123136980827553,6.795464185969943,-3.398168329196603,-9.533775046021198,-15.067703652202917,-4.464406634909805,-2.0871011346090222,0.09196313991146572,g
-11.700158193985924,8.065992233996258,-3.35225139417888,-9.511436730701869,-14.856390330346837,-4.788920496820237,-2.1992683901128434,0.26032377399991874,g
-11.256926793834458,9.173766113767032,-3.27898593111425,-9.48782214427446,-14.779624567296585,-5.339017078840022,-2.5450876547244294,0.2520735355590287,g
-10.79528416845457,10.123430631919717,-3.176020838193394,-11.185782669933852,-14.772564244675369,-5.986587637533259,-3.030135885768276,0.11761916086487123,g
-10.317071705927678,10.920642766448543,-4.984390288194662,-10.722714188296615,-14.708160519080232,-6.50255287361288,-3.3992141837571728,0.04622386876724423,g
-9.8241307943352,11.572071666704504,-6.476035069565192,-10.097253317173447,-14.471545253487966,-6.700392696531435,-3.4094708442328403,0.20583776077262658,g
-9.318302821758559,12.085398653395362,-7.758751587565049,-9.261502557087354,-14.052859058545739,-6.568749946955921,-3.0157402273629197,0.577104817261824,g
-8.801429176279171,10.520045165670261,-9.035931212616696,-8.301431215768023,-13.578132825966426,-6.280096138453368,-2.417437512195888,0.9383845506799651,g
-8.275351245978454,9.006150741713208,-10.495044171330834,-9.376529770691416,-13.21272739577088,-6.0528708700754965,-1.9210276974076308,1.0335745794336515,g
-7.741910418937827,7.553847226937293,-12.185383595082723,-10.63194964396521,-13.009509895679392,-5.976393489845298,-1.7221670834106746,0.7862775789662566,g
-7.202948083238709,6.173266466755614,-13.996288302588017,-11.977360227940157,-12.865038379468771,-5.951136964850536,-1.7762834455972278,0.37340738637736764,g
-6.66030562696252,4.874540306581253,-15.762461374217665,-13.278255401749536,-12.635883083903922,-5.795180929271949,-1.8534938946906034,0.08885065197166844,g
-5.571345905004596,2.5631791679068714,-18.904993540719527,-13.798258361874835,-11.92452719292347,-4.918701281904918,-1.3710686095824045,0.338816190598171,g
-7.377410184352398,1.5708078802330416,-18.429581532446207,-13.3463585520738,-11.717010906968653,-4.5195523714441155,-0.9650332074264311,0.5037017167423492,g
-8.73070404854191,0.7008185742188948,-18.237836138977944,-13.12786762750136,-11.769215361466252,-4.41810219801109,-0.7959480409432464,0.35178943428760234,g
-8.730704048541906,0.7008185742188948,-18.237836138977944,-13.127867627501363,-11.76921536146625,-4.41810219801109,-0.7959480409432466,0.35178943428760234,g
-9.641908849156902,-0.03665690472247216,-18.18719403960701,-13.010994287812105,-12.032203818217406,-4.642370816954373,-1.0406860608748434,-0.13383587041033734,g
-10.087318070562132,-2.5121268730791524,-17.947442504188132,-12.734160252194243,-12.281880701335194,-5.022410045151611,-1.637702622350821,-0.7136733660019338,g
-9.944605387770755,-4.53868848355472,-17.14974146712236,-12.0201930536818,-12.206301015491281,-5.283792617363615,-2.3073709761919545,-1.047621538879077,g
-9.046626463870302,-5.93726125855508,-15.593749005960447,-10.71451904619003,-11.568225715517968,-5.191618681712046,-2.702130032250898,-0.8964202835295613,g
-7.307280325406713,-6.625324093716289,-13.345826159537513,-8.843583616076069,-10.319204312097598,-4.647688028818344,-2.589430164202723,-0.22433680536285885,g
-4.781491516790438,-6.668361017947177,-10.640742635234616,-6.549595275433747,-8.575110661867674,-3.695480341481752,-1.9619737654339322,0.8402190551508542,g
-4.132788426809031,-6.216682111931046,-7.701116533881574,-3.9786866390828863,-6.506340948248183,-2.4625416890694383,-1.0188399035822544,2.1224233385649645,g
-3.476773214988777,-5.442163951865865,-4.647289859401054,-1.229129271300682,-4.257658576195638,-1.095136017234784,-0.03528675410709311,3.502578912179211,g
-0.4749883826763174,-4.517270603241732,-1.5226928060967713,1.6305260874816425,-1.9274144799231578,0.29024644522490245,0.7997755758528139,4.949544082598679,g
2.058132563777488,-3.5671721178649043,1.6580047114700487,4.539732116401339,0.43798342947401603,1.6406222719111554,1.4823288804564325,6.493443539739724,g
4.1231130769338025,-2.601025892590677,4.878514605998487,7.446584421067496,2.8388565213539607,2.9767855162850276,2.168816208934825,8.1735949375439,g
5.687051121770843,0.34739772173400996,8.080461297409862,10.29680142570911,5.272458055270849,4.358884564070604,3.0445898664433173,9.990725363477479,g
6.6193872335512935,3.1607781796519427,11.131708850435402,11.088573742589775,7.665633985896558,5.8131036172677275,4.1710612246839975,11.877286166425895,g
6.745706315248292,5.629299006377827,11.817347269853453,11.485760711856992,9.870445360239255,7.270244589765279,5.415382062196325,13.696934630780031,g
5.973599012929457,7.591505897329478,11.934031696602123,11.417817360156542,11.73810833740333,8.574365639691605,6.515597510620618,15.284474389562849,g
4.352643870162993,9.060974618489874,11.543308772116161,10.884255153887668,13.196661511577611,9.572030304055007,7.244697123302226,14.813637000825784,g
4.5419856545302775,10.16177367143239,10.767944307100832,9.944852321526785,14.274640256416614,10.226011018271725,7.565563204280162,13.88314374054649,g
4.653805283987493,11.037536427163461,9.738941407827982,8.698077390470552,15.08139916214767,10.66386611483972,7.664686123643262,12.584655710963878,g
4.69588516681395,11.841844979629796,8.563258931434763,7.25461065994674,15.75956817889281,11.106910505309017,7.830455678573797,11.081467054529856,g
4.6760077112889595,12.690832923034256,7.292455920430143,5.69905265860667,16.40666897290681,11.718092721696252,8.258572620504456,9.53015036277375,g
4.601955325691829,13.542107432431687,5.900906388534436,4.055597338658889,17.007275372714922,12.485837710271923,8.930240148978028,8.013263390161075,g
4.481510418301871,14.194851023185109,4.312702975245554,2.293222055343494,17.452877782726414,13.241423035650097,9.652813537986843,8.034387261470945,g
4.322455397398393,14.487198885902433,4.379701025196538,2.2888618003545473,17.64635075916026,13.793231295793827,10.21897159542397,7.810654204228813,g
4.132572671260708,14.44654287586925,6.0358151940906986,3.931017169164421,17.580568733860908,14.060497257559131,10.549489750924097,7.365398448987035,g
3.9196446481681235,14.198188682661385,7.469777369078093,5.349896049938386,17.3142307097809,14.100465636640248,10.713518408144896,6.764517306284056,g
6.005154148819505,13.801235256971854,8.732465469767309,6.57993240784553,16.899611288674546,14.02513137841946,10.830768584082572,7.7621009941875645,g
7.902898042128707,13.246095705821045,9.868673190596192,7.661900517234065,16.353176753212416,13.892096461139019,10.95073794684771,8.749620278040977,g
9.669347862644667,12.539847784961301,10.912662452138637,8.649810535232183,15.672889258045506,13.659593108551837,11.00798423300422,9.721721903253613,g
11.339217041179513,11.693954912594895,11.871044552378772,9.593220482769478,14.855394704854708,13.234112542778854,10.88094520371167,10.684217670552673,g
12.887724696330697,10.675741208100069,12.713249020191897,10.508636621348305,13.91061132507416,12.566403508711131,10.500372655989832,11.661372722582541,g
14.274847685150622,9.4805535712856,13.408291304792233,11.385088009632167,12.892511870281496,11.716066033656244,9.922709210736508,12.683127116025208,g
15.531323589358283,8.230759276254798,13.982258364862801,12.226941567263951,11.913560859090463,10.829895568093356,9.31402144081047,12.2629686224457,g
16.76368632064075,7.101309303499397,12.616976850400151,13.08235956283541,11.09774569613405,10.049167662409683,8.84942719701635,12.137543957925615,g
18.070522996006023,6.149987573388511,11.5334946353649,12.346286412010555,10.50385299069313,9.420394375186168,8.587787509634252,12.211814724353879,g
19.4858249024074,5.3059820949972725,10.745322094640528,11.930118771206685,10.098021277824651,8.880249307911322,8.409714272511675,12.325375326317637,g
18.68809975031707,4.518618502148878,10.20153827905327,11.793650859290498,9.795952828765198,8.324737549061904,8.084384997925705,12.307900997418267,g
18.158494095846805,3.831812729156932,9.844583172076995,11.86367327737,9.528756496895138,7.711830700650998,7.446110621911814,12.055549126961292,g
17.84037698457067,3.325629647404669,9.657861764472838,12.070991939612451,9.297446402860285,7.127272360697747,6.559094131269599,11.59371417222243,g
17.722474947114065,3.09013464852215,9.704799462235417,12.399123405383788,9.200210275900227,6.763338940368875,5.722168419713322,11.066884224044347,g
17.897290251552114,3.254351110893981,10.112879240458877,12.897395878458497,9.391082284104476,6.808026195074518,5.27255569770592,10.63439674017072,g
18.469029249727857,3.9047167490554826,10.957925321475278,13.611952430305019,9.95245830678132,7.3076511044533135,5.3242771931600945,10.337387131587795,g
19.366154765523653,4.917168164276207,12.134883037174921,14.484809302617725,10.778803748811296,8.107826122662603,5.662735046215888,10.050810452004715,g
21.004398515420274,6.790244673348836,14.398708808677233,15.976697427527412,12.226049924768137,9.563706459169312,5.805128133364551,8.830060203039384,g
21.291939285866214,7.338209775651767,15.089026946221614,16.301471327822604,12.56476406790146,9.924631606371806,5.435561917332704,7.91862618803832,g
21.142792982575198,7.69526549552442,15.457246290656007,16.331568749399143,12.722181985384369,10.072115660279524,5.094421782648123,7.106630934123984,g
21.1427929825752,7.695265495524419,15.457246290656007,16.331568749399143,12.722181985384369,10.072115660279524,5.094421782648124,7.106630934123984,g
20.571152606616447,7.881440427250212,15.559863222031378,16.144152312721584,12.799498948852309,10.054169039690649,5.0196714780968765,6.621491973421376,g
19.634378293113862,7.84392312242954,15.429677804055714,15.813234560402151,12.806957994893995,9.82326002512162,5.176925792638559,6.507936353597008,g
18.434872555957337,7.547522140407485,15.063881428232895,15.380323530741341,12.668679967172173,9.26740369750833,5.303404528364039,6.632624963983751,g
17.043234194137018,6.983272453017366,14.432209138595852,14.84583724950443,12.291010848809291,8.323669704173376,5.153611431261977,6.823052720726163,g
15.450597520966758,6.143562360807296,13.506663689694312,14.180882933950304,11.63758242310414,7.0672582723670105,4.7141925893241075,7.006460902692732,g
13.648416975118106,5.08055546507874,12.310106596743932,13.359823960138888,10.764969603745604,5.699494008315864,4.199192261603125,7.2287689562901765,g
11.718212113115305,3.9477877296552997,10.9284338632289,12.38460693988641,9.78445084113349,4.44836686865623,3.85166526761842,7.5568453429464,g
9.796544003489428,2.8943080885416412,9.462677544283675,11.279688172201542,8.777617042121053,3.4667439737177927,3.751720018033987,7.973409900918343,g
8.000765072384738,1.9476990914686805,7.990432081202767,10.081957410050013,7.758680342487358,2.8038888337948613,3.797324633658602,8.3602037905366,g
6.445846059753208,1.0793882934733574,6.587280087000602,8.846216901673307,6.723403064071894,2.444935563250186,3.8331521949859635,8.561673225421321,g
5.27032341183466,0.33634762766016124,5.341598348696566,7.634937232054109,5.700685213245749,2.348812550687057,3.7694767708592627,8.45199811270698,g
4.540438782829267,-0.20347103457206916,4.2958219908019775,6.471423025630651,4.723179028016393,2.443750900264797,3.5916158299250993,7.961458308340286,g
4.144572979734717,-0.5795032867337522,3.3915005291602993,5.3162999053048825,3.774391655297067,2.6207081484585313,3.3108843089318354,7.088717526296323,g
3.883630695193163,-0.9203717306839936,2.536231508322925,4.133727186167416,2.8245447524378853,2.782386674157755,2.9547379090714756,5.928563593709726,g
3.689115996904949,-1.2469714229264985,1.7448140047633056,2.994310772727044,1.9302648920902936,2.9243724449654724,2.596979584188714,4.679364270512272,g
3.6921984934905367,-1.4109769252142519,1.179345661849158,2.081361817086093,1.2521448002085673,3.151237156157487,2.3416185111402017,3.5676211436327634,g
4.0696111442773715,-1.2665587157944864,1.0264946603583742,1.5635030532636494,0.9360754139922781,3.575670411852787,2.226770095322409,2.7058379912522597,g
4.875274584555295,-0.822329356106221,1.3424810917591006,1.455027834120254,0.9824529158911387,4.178452751247977,2.1426133531263587,2.006446320799931,g
6.014578759939093,-0.1958925366307675,2.012541479989822,1.603215921243723,1.246840101017527,4.7739916186120945,1.8867494022770135,1.266236566521293,g
7.305658190016653,0.5001309172989561,2.839104631219384,1.8119361736609043,1.5722613192626906,5.141916660245525,1.3514041423115732,0.38465517540982974,g
8.556366962839789,1.2001450855181355,3.679803701885697,1.9929438693636825,1.9355370040024114,5.22290330817663,0.6798015856839232,-0.47186702729388613,g
9.667055983844216,1.906942002553634,4.543905933156589,2.2249363541809215,2.489546405040548,5.19718981036169,0.2203230070163628,-0.9304565996057054,g
10.695030428795054,2.7142510038919516,5.565859238247142,2.6690026346814824,3.453883260352252,5.355338337435225,0.27983774698380576,-0.6749801992740725,g
11.74918225324636,3.7126193840082573,6.842446387057706,3.3946530187908364,4.913042987518196,5.8584204110274225,0.8771993500661651,0.30518394455976655,g
12.776121487259854,4.802251647869048,8.263799227837136,4.262271792996944,6.6856362238162905,6.594676196203638,1.7230872350832265,1.7029791387094673,g
13.506274572000583,5.674834342306077,9.523382180064328,4.987400714936488,8.409195188076968,7.26207275774068,2.4580093922453785,3.137505818932309,g
13.66138569067545,6.067137519607709,10.322845986428662,5.34830360118684,9.790578804805888,7.60850447694624,2.9426702298664873,4.444519318981014,g
13.18181497447205,5.994622260956127,10.571098503241963,5.346012475023462,10.79091141711727,7.626841057631367,3.346568130730998,5.762680469962828,g
12.229603214404783,5.681863017173383,10.395896838665166,5.171831113473912,11.578807465273375,7.54980399208779,3.9691987782572573,7.349152138038304,g
11.037311599714887,5.326374583012585,10.004269239878278,5.0340554394167345,12.328449402238856,7.663650783719836,4.964876112878948,9.295306175988923,g
9.801887085976222,4.999300018012309,9.548815845580691,5.0111388171507505,13.064454814697655,8.096879263825203,6.203337215237101,11.38678890509322,g
8.648668041754789,4.697598948914491,9.076264602642468,5.029666478054851,13.651890077911824,8.734520834597147,7.352062094364679,13.209035083415278,g
7.5985583944870525,4.36844280134161,8.538692962626977,4.941989337742607,13.882866299954674,9.294110837367722,8.077615214390208,14.38729115819335,g
6.589155064589765,3.9064338986010987,7.8520218102469626,4.632556839085798,13.58256521775348,9.486590114676861,8.201370254211769,14.761221757093683,g
5.604126883859272,3.243000086597257,6.985920267804131,4.092141075986838,12.68931221848775,9.150319188327533,7.7266627466315025,14.384912327376503,g
4.771489234265607,2.4478152043312873,6.0134050949400315,3.414545511785979,11.27080008998061,8.289585486729818,6.771153874016217,13.404774628387727,g
4.2701677554025235,1.6604419169574527,5.062065737803112,2.717350663524056,9.466346343294523,7.02398543081578,5.486962997636718,11.949686933674087,g
4.1497024199941235,0.9270452717684308,4.224341926208498,2.0613015345577357,7.415376866820883,5.5067797262079745,4.017762342165491,10.116528244018891,g
4.297577050030944,0.18765336941540556,3.5279107047644063,1.4448152703852735,5.24180220782368,3.8666331535159735,2.4846115849274897,8.023386944495149,g
4.556929490082638,-0.5915545472799624,2.961678821811433,0.853452846411422,3.0733669343874377,2.1858348399240803,0.9731682347431747,5.844283902732583,g
4.796869132095462,-1.3848077444531806,2.4791491943893647,0.2813318390610287,1.0254144897462392,0.5021444833730833,-0.47632661635703055,3.7776449990274457,g
4.887968014548039,-2.210922899416823,1.9842279348540792,-0.2930318915604604,-0.8393687537174259,-1.1674306250633033,-1.8472636460269527,1.9818914613977516,g
4.334868609588444,-4.146161292880103,0.6826859592255257,-1.5706756154144668,-3.841494127413186,-4.184169178209735,-4.063662367224175,-0.4821620347981358,g
3.8741500713390686,-5.012267664668599,0.05266489253581448,-2.1957711243469133,-4.699576915030743,-5.163951979159707,-4.583860039623759,-1.046382841215266,g
3.5334582884138115,-5.475494774656094,-0.2683628569474561,-2.628187572742997,-4.825552767502062,-5.453289472651457,-4.4910647271699915,-1.0731474762571964,g
3.5334582884138115,-5.475494774656093,-0.26836285694745615,-2.628187572742997,-4.825552767502062,-5.4532894726514565,-4.491064727169992,-1.0731474762571964,g
3.4401899620201633,-5.366968843801383,-0.08224450990968878,-2.7018087322819073,-4.048728352014413,-4.8714595779037655,-3.7490693765431162,-0.5092173778116122,g
3.670920086069964,-4.6206484372558565,0.6915305931447446,-2.3151784278213916,-2.3521498179972413,-3.4067715733178945,-2.4611371821383465,0.6228033136183038,g
4.241528194629362,-3.2601967963424237,1.9828283986349717,-1.4947601448900696,0.09471337011009258,-1.238410151578265,-0.8189666188927005,2.195834034658546,g
5.035381233272181,-1.4652149057963837,3.578975821414115,-0.41271564408665684,2.9592802833772205,1.3231263067478118,0.9730117503723456,3.9999311967107616,g
5.824792120548198,0.4380762726676575,5.213411036156005,0.6870569417911356,5.846077196655914,3.952142332205855,2.7524913544177325,5.803746248607348,g
6.442740239288996,2.1644448001346808,6.703949453800037,1.62667097251503,8.439059576514532,6.412418505960799,4.409361866874392,7.415900334156328,g
6.895446823029104,3.6206820289968653,8.00710503863059,2.373899167404245,10.573812715555617,8.579150065114435,5.856539390233172,8.707796452616313,g
7.252725275076253,4.811379383357638,9.125244446470935,2.9835337528463524,12.1834119444364,10.375502153820465,6.998312971535762,9.59900829973807,g
7.472333858041795,5.659105763544217,9.984743319461069,3.4710895793524847,13.206194003607399,11.700301510893693,7.73543901410554,10.04164343507555,g
7.390100903461716,6.00766510388036,10.428912482934305,3.7521998062140653,13.567161376453717,12.420469695571253,8.003107859836744,10.02577467523118,g
6.844995836657435,5.757955928490277,10.310809702568275,3.6888945546035266,13.22332093404359,12.42643281761278,7.79708365050417,9.587451476410557,g
5.7653958108007455,4.911585219953282,9.57592155649819,3.1825267809456075,12.196102565355329,11.69645606747913,7.161271485241258,8.795123853875733,g
4.1943855506096845,3.5293222124561714,8.292627116753577,2.2484841572853176,10.578013055252015,10.328448227358543,6.1615825451514565,7.724170723443626,g
2.320191700955268,1.7619437500261568,6.648540752480102,1.0382320857647762,8.544561447787355,8.52864509867452,4.882958657568847,6.447592922712756,g
0.4477207873398795,-0.10171727344724513,4.896957068959149,-0.215514180006513,6.348661260153939,6.560285853647116,3.4470743752708315,5.048756141409536,g
-1.1691472169130916,-1.7498841674636865,3.245492489908517,-1.314433471192047,4.253757201780925,4.669775804800812,2.016646095448432,3.635321390066683,g
-2.492732022329131,-3.046216083568717,1.7719148788509653,-2.1839799094324337,2.4432156860535517,3.0266660395781377,0.7645184073859226,2.333751452377053,g
-3.655054154676628,-4.04644799464006,0.4560476887684949,-2.8584157755807147,0.9883269526935446,1.7047429248398647,-0.1829373466920406,1.2596323687478423,g
-4.766965250640942,-4.8312284222464665,-0.7256315521322103,-3.396724105902636,-0.12186737002562209,0.6955534428221476,-0.7972315512259404,0.47489097116233453,g
-5.842344474460832,-5.424740573078599,-1.7698037974421865,-3.8314501078521284,-0.952683407084234,-0.0679302594665037,-1.1553889077758626,-0.03961742880279675,g
-6.885622902524391,-5.877520725970515,-2.6878280076345558,-4.178678482997415,-1.6063473542267181,-0.6779406672136434,-1.3811801516520603,-0.36282022905371136,g
-7.941185357856152,-6.29656375597863,-3.5140322103237054,-4.448304670680027,-2.168354950294213,-1.2030834767566478,-1.5485817144723528,-0.5641044020791606,g
-9.023062045054251,-6.73624715654268,-4.255558784593008,-4.625822183890991,-2.6381485963695033,-1.6499959786224163,-1.6247109624495237,-0.6392679433519819,g
-10.077250568563029,-7.152820253788471,-4.876542642130514,-4.672518143714601,-2.9339867090930647,-1.9743808889624852,-1.5084195477281879,-0.5109941927700058,g
-11.053200095616665,-7.5209549173753185,-5.353606490314391,-4.5689838927087925,-2.9835481601061895,-2.13442890165689,-1.132558825849083,-0.09299511260410753,g
-11.947625392289115,-7.907116529188508,-5.714733318607315,-4.3505250910029565,-2.79351755103677,-2.1314242435601924,-0.5352242407882946,0.642638309662855,g
-12.74229432564763,-8.363472840288413,-6.000631566216088,-4.088785874106623,-2.424886486100525,-2.00101049465347,0.1619994749383284,1.6482994366071086,g
-13.362538578075597,-8.82625063671843,-6.209562202442133,-3.8457382997118055,-1.9291950962673663,-1.77552443678834,0.8430167583925791,2.832507526131319,g
-13.735912458424284,-9.186130035228125,-6.292277477970549,-3.642362223300519,-1.323436730685674,-1.456301698469043,1.4767340114648975,4.1023028126448455,g
-13.829204245938877,-9.38685793220746,-6.173469549658518,-3.444442233297719,-0.597226639866674,-1.0094522480497263,2.130678544210467,5.3854617860781016,g
-13.589997202663275,-9.385371070362776,-5.771124425247933,-3.1685922039331267,0.2782729923392283,-0.38166173475211995,2.916698172209215,6.626481972191248,g
-12.93524103139159,-9.099684026064216,-5.047213189901385,-2.737954047207217,1.31927425437528,0.46592793785525827,3.9101344348894607,7.767979113149712,g
-11.880826573637345,-8.506777265287875,-4.086318774923963,-2.172166534095055,2.4686848211383343,1.518375526887235,5.096075062880788,8.735797377641843,g
-10.639239509343701,-7.74903954060837,-3.1040359946090765,-1.6199179791628247,3.5729693935481883,2.6896870473658803,6.372528812621452,9.440541042628473,g
-9.509021504904698,-7.040394720854107,-2.333549555748239,-1.2771414675878634,4.4462595679108965,3.840338594604283,7.595321422880788,9.792193005100245,g
-8.67964651912222,-6.4864237666645295,-1.896721809733886,-1.2636194778199383,4.958512258176503,4.813108726780071,8.622651478499062,9.715208124633879,g
-8.181550011305472,-6.073190352502669,-1.7880593419965023,-1.5740866054824874,5.056618184711651,5.470640090751521,9.335385497235649,9.161639322480008,g
-7.9684917298872024,-5.787380295759958,-1.9474116788235811,-2.1206260219220288,4.730857634173665,5.734842964600189,9.645908312843652,8.131199028417798,g
-7.9660104966476695,-5.637239311851733,-2.312530094632309,-2.7962403999535757,3.999364804362282,5.6165705280279195,9.513131264831339,6.694052387261452,g
-8.076450811161262,-5.578650853145243,-2.830698694288774,-3.5177231207778483,2.9146947198792414,5.200744860911039,8.951287156684803,4.988508475246446,g
-8.24027235069256,-5.546234367361642,-3.4791096680558864,-4.2542427001345136,1.5449398325108148,4.57842784082446,8.00866316186442,3.174853746241883,g
-8.497491161773896,-5.571738386072786,-4.278407434583094,-5.028271244091281,-0.05539541352213808,3.7823994194040877,6.728950684485997,1.3743247551522664,g
-9.413937968279491,-6.133895522831924,-6.295482142379861,-6.71133090887911,-3.6273660697056314,1.6351467261566963,3.325950426857672,-1.9289197612426243,g
-9.835055651198681,-6.553026161877457,-7.2831020010651155,-7.452943218294033,-5.270457173440377,0.4125561100008781,1.4377207058843453,-3.249051146916531,g
-10.055452095375987,-6.884246385030339,-8.058947936483886,-7.966195856334354,-6.5679989711999855,-0.6753281543473241,-0.27356162835314307,-4.1259512376548795,g
-10.055452095375987,-6.884246385030339,-8.058947936483886,-7.966195856334354,-6.5679989711999855,-0.675328154347324,-0.27356162835314296,-4.1259512376548795,g
-10.116841870983528,-7.10290237515733,-8.569994895931664,-8.206043760518302,-7.431699692303788,-1.450238212276196,-1.5824663895165874,-4.405044886614607,g
-10.143373887697386,-7.242890355513028,-8.854986625820471,-8.21793691083261,-7.879393883673197,-1.8599137309847216,-2.4053734456967306,-4.065574985521451,g
-10.238215498241022,-7.3334201969861486,-9.00230722705405,-8.101776997861293,-7.993664971084722,-2.012578419378511,-2.8357464258016436,-3.250693331965079,g
-10.46517724640773,-7.438706234551573,-9.106960057854277,-7.962444968299126,-7.871115261696419,-2.105068746436798,-3.054246072160036,-2.187439970304987,g
-10.834565256247172,-7.660034742514162,-9.21443107282381,-7.8599623458751084,-7.570249299948334,-2.291015017409575,-3.1810651239286,-1.0597826749867025,g
-11.252439790341104,-8.015513729174131,-9.274907286203284,-7.781391003358886,-7.081548622878304,-2.59074558474993,-3.195151290509358,0.05859551464810968,g
-11.552112611143622,-8.382274129413059,-9.181190808542455,-7.6730242307849394,-6.370901415434392,-2.9168620418289946,-2.994395002304228,1.1569409432875806,g
-11.63563718451086,-8.629406944462795,-8.878818219951619,-7.516820429011996,-5.478591566964624,-3.185999227870032,-2.5460414158853677,2.1755963565546375,g
-11.537193815428187,-8.747349119720443,-8.419693946286813,-7.364948722969641,-4.561811141261897,-3.4092874456666693,-1.9885331054499358,2.941942456822642,g
-11.303823109713381,-8.77790225352411,-7.893005880895916,-7.28691753566485,-3.8173212126289564,-3.686779877720171,-1.5840218830979136,3.2235743300146695,g
-10.879193269464974,-8.6926166650315,-7.338223666876535,-7.29904029858812,-3.3701375937748765,-4.130483128536555,-1.5562378991225767,2.857397782133961,g
-10.176418023680418,-8.44461344439217,-6.758239134346091,-7.367497687399923,-3.247703736341215,-4.79298600464296,-1.9537367214701387,1.840479139918082,g
-9.22212107978886,-8.094745493548487,-6.192248178888938,-7.472767018263092,-3.4361601794999075,-5.648018742561616,-2.652980401276388,0.30511289551544907,g
-8.154994257889062,-7.775578562502764,-5.733618250220907,-7.648303493429121,-3.9280023272927886,-6.615683694915487,-3.4854757013157225,-1.5877179343061094,g
-7.107654209787876,-7.5435192180197435,-5.477584805572212,-7.950266247084436,-4.720421805555542,-7.601561359939561,-4.364785795275976,-3.724925077391076,g
-6.1488261416468175,-7.352298588703117,-5.466948958911642,-8.390926648781678,-5.79141566715479,-8.523859976548223,-5.305366881054033,-4.311368545485817,g
-5.304332589451875,-7.150689386839742,-5.665226042482194,-8.887410958231825,-7.073260527383153,-9.320696497855769,-6.342370908983991,-4.820121374611562,g
-4.55827975432616,-6.915062062035673,-5.953003928766234,-9.265261689517867,-8.431943717278598,-9.950106993718709,-7.453700489052105,-6.827551461619116,g
-3.8601364656272503,-6.6107663415773645,-6.178551863406364,-9.339766218302369,-9.690130120413798,-10.39829805660678,-8.560704133544125,-8.29755708065225,g
-3.2204390924156114,-6.2407597845044895,-6.2717039276753725,-9.041243815001604,-10.711265358787397,-10.688733402249,-9.584935538083291,-9.100457437705717,g
-2.797080401368667,-5.942702324577598,-6.321345375174456,-8.477521799138717,-11.471832301952576,-10.868474059090287,-10.483860988852278,-9.298700198867325,g
-2.800432447783242,-5.921845234012767,-6.5058426083346586,-7.851823829056256,-12.029062129080318,-10.970375350392562,-11.228530868395886,-9.049082341831006,g
-3.289081764082325,-6.240292312117044,-6.925667061890363,-7.294561065388978,-12.409149197372425,-10.983591407611964,-11.758778739452664,-8.43342117891688,g
-4.1101805372721625,-6.743626978634742,-7.505622462519744,-6.763370067355933,-12.539685689524289,-10.860152051614781,-11.97438977505299,-7.371698976722523,g
-5.037574265279818,-7.216665977737405,-8.043626660172054,-6.0954427389880115,-12.290227690792241,-10.548066729222073,-11.782079594508541,-5.705234964878332,g
-5.902262556588332,-7.532356138253915,-8.332261594699554,-5.154281440374092,-11.567747692897242,-10.02435249772096,-11.165237822389306,-5.095964128495784,g
-6.602405375643585,-7.6419697272403155,-8.268036623692677,-3.959858621871594,-10.398062679028722,-9.319724357657176,-10.221465184353633,-4.142082434003671,g
-7.106959169158114,-7.552396102364807,-7.925041920172975,-2.7313788989118146,-8.971007083153774,-8.537344927951443,-9.134400267287315,-1.4888803435834026,g
-7.509200316126391,-7.389359891087251,-7.552667946440939,-1.813618424239386,-7.618292971933568,-7.84645928709264,-8.093410054047492,0.5715859023847539,g
-7.9900726666187065,-7.375351223941296,-7.434815270832786,-1.4977504420143837,-6.678386819190784,-7.419965921508856,-7.212426294122539,1.7298453643962808,g
-8.634609098837617,-7.619979165882337,-7.666217155571568,-1.8317627136722474,-6.297440541809728,-7.3282674512672825,-6.499311205679859,2.007002292011495,g
-9.301183604432557,-7.958512730605894,-8.04561651127667,-2.575015386650305,-6.334054077424923,-7.466510706965013,-5.891980318651137,1.6525264019122907,g
-9.71760226768148,-8.073592792839358,-8.214695263347327,-3.3637462982448683,-6.480763705064712,-7.594939346877615,-5.334910002346705,0.9071014447839432,g
-9.68916470456177,-7.75480157661043,-7.928463083274849,-3.9663068290724004,-6.50830847719746,-7.487666438944866,-4.845034461930607,-0.1840301477169138,g
-9.209193666771267,-7.005358123980534,-7.224361123632906,-4.4218459808814945,-6.424348260011459,-7.087454765142944,-4.51996715119989,-1.767082627788838,g
-8.451067886818603,-5.979790286037189,-6.3801995737198585,-4.965979938161372,-6.435926794572926,-6.546425854512964,-4.47641669203332,-3.9969885973881722,g
-7.717656047353479,-4.913617092183928,-5.726907330326776,-5.821844798717085,-6.7724250422715375,-6.114850879046421,-4.7602030844397065,-4.958524083606891,g
-7.32293272879875,-4.047863153786753,-5.446615867002756,-7.015178568456096,-7.502964848978044,-5.9571305543208295,-5.300247385988526,-6.057735130011959,g
-7.396520973516535,-3.4775162231042733,-5.476048376536527,-8.336002711000766,-8.467489842199933,-6.0326368978955,-5.946331779521548,-6.986482750346072,g
-7.787984907249671,-3.060489443412614,-5.59037120080057,-9.471124748470995,-9.375543967223482,-6.1293404034628365,-6.55415445562353,-7.48175248243126,g
-8.2284604054182,-2.572478766773194,-5.618461184895276,-10.212920341857908,-10.009353553042715,-6.017111778664784,-7.039823114337709,-9.071611781718628,g
-8.59820532787891,-1.9705878335177829,-5.6007160461863155,-10.579495490051757,-10.362795511081309,-5.596745051684696,-7.365744172162276,-9.87633311126758,g
-9.635469666145783,-1.188197084330859,-6.1813668506082395,-10.872772370013347,-10.836512325814514,-4.1888997099782594,-7.361429099353849,-9.264563311064014,g
-10.594461458381984,-1.2811053835977138,-6.914821102555843,-10.961164996094173,-11.09418897800279,-3.466225413260529,-6.913342285281163,-7.817456428267304,g
-11.851098547715896,-1.6454161019910423,-7.751380428518037,-10.889713630058727,-11.230364557065212,-2.7701015343707662,-6.132117278276607,-5.5859353902157505,g
-11.851098547715896,-1.6454161019910423,-7.751380428518035,-10.889713630058727,-11.230364557065212,-2.7701015343707667,-6.132117278276606,-5.5859353902157505,g
-13.223611916111803,-2.1132720758091885,-8.445828343905452,-10.50702920378826,-11.068935605168791,-2.00608633979292,-5.046326370278961,-4.511744017799495,g
-14.396836064369044,-2.4262083730677073,-8.783595712266838,-9.724426897992824,-10.47143517607054,-1.060638234191034,-3.697584127298575,-3.038407916017256,g
-15.065751327522765,-2.330646687079039,-8.650937242717912,-8.563365584209834,-9.391323654548483,0.11047859157188933,-2.1150129062628373,-1.2452959817912315,g
-15.148199775274453,-1.7718877477087975,-8.082931692487328,-7.167966046278795,-7.9123448113661095,1.425152021063651,-0.344307569743964,0.7089287891956868,g
-14.839107670256118,-0.9532887860127122,-7.247200251296498,-5.775610660094214,-6.244804683147196,2.6754255652117087,1.4811110967216659,4.179093407512051,g
-14.434053263467884,-0.15463045030268469,-6.357177618493795,-4.641164890838773,-4.661298685687949,3.593231873987075,3.107932292255218,6.866702294987564,g
-14.125863090487702,0.4677761249656058,-5.582515863200362,-3.948272750141323,-3.406954042473018,3.961464514917774,4.239700610079015,8.365988482527301,g
-13.950798745916781,0.894626516937692,-5.008638255867402,-3.7536608169315486,-2.631443458675369,3.7168789783710965,4.690053293096794,8.45019556795845,g
-13.828599826819167,1.1682384298940403,-4.630993846334954,-3.9852399504881744,-2.3604957191178584,2.977981407992944,4.486633248264252,7.159483567574696,g
-13.6085997937499,1.3738015201516323,-4.377086645807608,-4.498020630685541,-2.521136973981216,1.9662627610938856,3.8235637665496265,6.529603794891902,g
-13.16825098465134,1.6025121290320925,-4.184527442457967,-5.176683274547792,-3.031146384786685,0.8666205028204198,2.893788945744619,5.400040671643475,g
-12.55745612387069,1.828032068919186,-4.097470452453579,-6.0213258218864665,-3.8919102915059063,-0.26365686270862554,1.7518071917549485,3.8475566072095164,g
-12.005563294942306,1.875809498189555,-4.256850903384426,-7.120766208310198,-5.166486108813163,-1.4501637048058922,0.3407004981433291,1.9578046795293702,g
-11.705800575022614,1.6265922934475747,-4.74567578591766,-8.50476068496246,-6.823937636818623,-2.6505255062973987,-1.3337272974649947,-0.10469869316582461,g
-11.60751604384501,1.2274268489047067,-5.444713478568701,-10.011907643417754,-8.608960856835203,-3.6407924690735927,-3.0488475796888586,-2.0449445277492613,g
-21.081499045894706,-8.308319427069083,-8.771426315917095,-9.610527724882205,-2.726705108773596,-2.668544594832575,1.1197145810661442,-3.2868630325511696,g
-20.734648585652543,-8.860354991107979,-8.997460055350803,-9.61906680488631,-3.6869140432733403,-3.682667831463584,0.0033750832606430415,-4.196036489107177,g
-20.11279620467774,-9.119130533694305,-8.944062789581093,-9.374166372401438,-4.477575632619911,-4.421975773764197,-0.8109602149893143,-4.84037906251049,g
-19.135518577475047,-8.896129612352112,-8.427661493177693,-8.779440279930657,-4.907099943207642,-4.76270133094434,-1.057408518509853,-5.0734997263444495,g
-17.834837869729675,-8.237193439545722,-7.532409806037302,-7.937888888726,-5.069615473643545,-4.8261755002411935,-0.8956777390672407,-5.012673842908668,g
-16.37008588535003,-7.387491363903074,-6.561831336954486,-7.100687490210636,-5.261284529605843,-4.8921488755692675,-0.8022173046507856,-4.952680574353176,g
-14.988760887675667,-6.674644784140656,-5.835371061606558,-6.5009531147381185,-5.737337413158041,-5.171959992717296,-1.1911433279262418,-5.1183621417379666,g
-13.8694905865871,-6.28724061461991,-5.453981047966701,-6.179976702482249,-6.477022371275597,-5.624834652594879,-2.069725910036668,-5.460216988633821,g
-12.969644119408184,-6.0985950542062985,-5.225896286600336,-5.950852683788785,-7.152909353224011,-5.980880250678948,-3.013188196810923,-5.674722319730549,g
-12.09745063721626,-5.790076820634355,-4.853565356351213,-5.56246695190841,-7.368679952070366,-5.964624497650653,-3.48399069220187,-5.444614549930024,g
-11.16677819638701,-5.207060317781097,-4.230696510521201,-4.939648510604557,-6.9801805927741825,-5.530813379139262,-3.2394207685854397,-4.704895077268429,g
-9.842402370931374,-4.113031964637377,-3.2093020020463774,-3.899703135991372,-5.437509464459209,-4.4008956149220175,-1.7766857795503597,-2.899181418613085,g
-9.880678871755602,-4.127361768351653,-3.431052349627335,-4.033280364729325,-4.941746286990101,-4.177739844301817,-1.4552656600753018,-2.5532745158571712,g
-10.481967941614037,-4.5753196020109215,-4.266648300661966,-4.679416322413938,-4.730340587748674,-4.154606022267928,-1.560927987106844,-2.7069964954673735,g
-10.481967941614037,-4.5753196020109215,-4.266648300661966,-4.679416322413938,-4.730340587748674,-4.154606022267928,-1.5609279871068442,-2.7069964954673735,g
-11.577492894847337,-5.355120746518169,-5.570491733069744,-5.65873883570365,-4.635255488846171,-4.120363277870995,-1.7783309759169577,-3.1577295617927263,g
-12.996966447386782,-6.320662122084867,-7.120793253442907,-6.7441581110844435,-4.4820676909685435,-3.9308230556385744,-1.7357452183241684,-3.6530955286581928,g
-14.519609464211275,-7.316478539995342,-8.73505139807797,-7.794499492058778,-4.233047895017306,-3.631426738005542,-1.299156361262191,-4.060695244441052,g
-16.02202258344228,-8.292139201713267,-10.356827985216096,-8.829131023999036,-4.0344267209909646,-3.4305520699502936,-0.6740795059379513,-4.432566411235632,g
-17.565029954451497,-9.366375476298176,-12.05162491615409,-10.000561049276715,-4.13854089030511,-3.5619202262222087,-0.26935015296301323,-4.960104133833353,g
-19.276480068619737,-10.685458434472293,-13.894863385721862,-11.467357063995976,-4.7356993005457815,-4.136917119783204,-0.4314803399455103,-5.859475084905689,g
-18.63394825678883,-12.222077679089157,-13.840738086654293,-13.249965633736897,-5.814955537319888,-5.075726877120383,-1.220463536420827,-7.232056187535219,g
-17.817391173534084,-13.7689254971731,-13.619881132886064,-13.107170267180575,-7.161899948002123,-6.146030801389759,-2.36404716844836,-8.96048984184156,g
-16.72692213729431,-15.092389411658647,-13.103564464526295,-12.692156743320584,-8.481701494611766,-7.077341225514357,-3.4243956064250014,-10.718986051602503,g
-15.314775100037394,-16.02694892304107,-14.18301334944191,-11.937476675594564,-9.550579180579495,-7.690562751703405,-4.077478101751163,-12.130524185884315,g
-13.568600252892988,-16.489996322859614,-14.67974533604754,-10.862697474595091,-10.320216564329654,-7.982539680025662,-4.315856957764443,-12.987796055746125,g
-13.932768512815993,-16.543598618862557,-14.702130596577655,-11.300948658068203,-10.935335819395426,-8.118590607775037,-4.422410191228321,-13.372069950636657,g
-14.17707961555458,-16.43284048716691,-14.499619077484429,-11.612507597590028,-11.628392572257304,-8.320382349827822,-4.726300682504585,-13.558777727055375,g
-11.999853466443007,-16.419395039713727,-14.288245221454542,-11.987684367221442,-12.518342555595101,-8.70380814295563,-5.326204153453352,-13.767617071940629,g
-9.817922341253071,-16.524264086802482,-14.08049217879476,-12.368280030088332,-13.467449058497001,-9.18222547201984,-6.0027099741549845,-13.956415751657682,g
-9.928392179781337,-16.521180752737344,-13.70340492504568,-12.488340714321442,-14.156863445416922,-9.5265003056122,-6.396071939659636,-13.839206332815076,g
-12.059481480548822,-16.22194416978632,-15.00381883022104,-12.108362302245615,-14.339997865538175,-9.550371020658314,-6.3053230855699365,-13.128239144795192,g
-13.914752878884538,-15.693974090954764,-16.094939764574686,-13.294757467487093,-14.039269399218005,-9.271810784129624,-5.856990630600755,-11.802683066125294,g
-15.6179319001259,-15.174192336100655,-17.05203968583407,-14.333498121861101,-13.511875851703655,-8.912510134386174,-5.401208438157022,-10.173181104286865,g
-17.26908669902999,-14.859477756209836,-15.994252831464632,-15.30728439843059,-13.04362184964774,-8.736682286441942,-5.23095480790195,-8.685949774838408,g
-18.905725714849815,-14.813777411918105,-15.14421432057431,-16.24306309894279,-12.760530239603575,-8.86558347966091,-5.370686381725081,-7.638561304104819,g
-18.14291358753113,-14.971102135919832,-14.494229343588367,-15.39504021557271,-12.585546460517277,-9.215699084662948,-5.607451601896583,-7.04703950377567,g
-17.33950976155763,-15.153832033498821,-13.951656181503603,-14.541115147461758,-12.344430922942838,-9.598595069078632,-5.716293245982516,-6.751689581279933,g
-18.91392800474435,-15.170978805960004,-13.436160890763679,-13.623169493092169,-11.938603059240176,-9.888420526028217,-5.668819457640185,-6.632951451772773,g
-20.460523177265667,-14.991789944565458,-12.961503387293712,-12.734225831800348,-11.454341721123313,-10.114579663110021,-5.648409623506202,-6.7334447268069955,g
-19.59980157518174,-14.780882765530809,-12.615809262806604,-12.050682616072828,-11.10851383230997,-10.40985567219396,-5.881195754616975,-7.1984670858083035,g
-19.041830488360777,-14.69876231187437,-12.457439137837769,-11.680963832210837,-11.074620271338063,-10.874425513976412,-6.449997974364976,-8.11992080532869,g
-18.716960596447535,-14.71888838710104,-12.454702830933092,-11.583554833816432,-11.357034306275207,-11.481505170318503,-7.247219842979794,-9.433052340348212,g
-18.433258118251644,-14.698930801976289,-12.532067142605683,-11.625463675226403,-11.816891411437117,-12.09227391931675,-8.073013839163165,-10.93743009693572,g
-18.047014634703384,-14.555427757649047,-12.62850696567406,-11.691661148197054,-12.276871589745557,-12.541262633031504,-8.760780286089846,-12.396323404687909,g
-17.488987931645497,-14.272367020402717,-12.676643363943487,-11.724715201068424,-12.583394692783607,-12.71287840217298,-9.22752171954737,-13.623984031894286,g
-16.70647487864113,-13.800196217198865,-12.564414233499177,-11.692893802400812,-12.61792648382366,-12.56991511606398,-9.449949841115966,-14.512410753907428,g
-15.691796038383433,-13.07742409005059,-12.180673725136772,-11.566407979593041,-12.318096815002036,-12.141760083087116,-9.428508648067956,-15.011520573968562,g
-14.55093018358642,-12.145719942347107,-11.507216335587616,-11.328869376148328,-11.703618503730222,-11.491198805832154,-9.174943455775994,-15.100499035559448,g
-13.45322765434535,-11.1404486816091,-10.639395190600471,-10.983852195096564,-10.853507043644102,-10.6781527244234,-8.70942253630341,-14.771470020846607,g
-12.503766987069618,-10.163549939601412,-9.719020805914628,-10.539713956017412,-9.847052311260317,-9.74311655943248,-8.046655958329678,-14.02303176904087,g
-11.717036366596664,-9.249222226213643,-8.865554263956371,-10.00113843238915,-8.737305236413818,-8.722396265395023,-7.18028428769465,-12.856845214634745,g
-11.09837522536984,-8.443155629406432,-8.149849181972927,-9.379519553768562,-7.5709795228187655,-7.6778414189875,-6.094478407395333,-11.283063509413337,g
-10.681861199049393,-7.809740074359115,-7.587028878354269,-8.70318349990296,-6.405042147220437,-6.708406631420729,-4.8141076602163535,-9.34617366497006,g
-10.496236828836638,-7.3481286733048155,-7.148622086599945,-8.02150365093562,-5.300929975853803,-5.927152021923267,-3.459999641750148,-7.163171671475418,g
-10.561630416427366,-6.9998887791272235,-6.811712241034085,-7.407856582135915,-4.321563225730511,-5.412955397019374,-2.2436807768629166,-4.935427241032377,g
-10.904786697320661,-6.760015492230984,-6.595712498469817,-6.938360058255067,-3.5254999198429844,-5.160984147582115,-1.3659348253950525,-2.8970259751112195,g
-12.086146373448406,-6.7136438743538225,-6.506058953938592,-6.376644205286825,-2.4641372148282166,-4.949469793834286,-0.6312416500248818,0.07682583792532564,g
-12.40758273443809,-6.687570004863102,-6.414031984580545,-6.018770480988628,-2.016966451633284,-4.668838827214455,-0.39227292445514117,1.0619800328257796,g
-12.290128431993178,-6.441278196640854,-6.117412273024191,-5.449631399907805,-1.5111256078028734,-4.168408812458888,-0.029133418074197604,1.8288259044433022,g
-12.290128431993178,-6.441278196640854,-6.117412273024191,-5.449631399907805,-1.5111256078028734,-4.168408812458887,-0.02913341807419758,1.8288259044433022,g
-11.834802151387018,-5.961005013880305,-5.59127419661217,-4.711275450609126,-0.9466753277647137,-3.489306441868662,0.3903931286924604,2.3846653416422985,g
-11.241749933014862,-5.2920258358679755,-4.866449325206488,-3.9397052706697466,-0.33656364671359296,-2.69398479422586,0.6831415833341705,2.659475054545684,g
-10.595052823148627,-4.414138080438771,-3.9519433611658057,-3.2335701794892793,0.36324545657716983,-1.7940753892131887,0.7381586915309974,2.600092078503367,g
-9.83834747853835,-3.284950539026069,-2.8289651819201955,-2.5728567558919524,1.232810436645941,-0.7492957054377054,0.6423883882754371,2.266669568341315,g
-8.898212073773395,-1.950530772901874,-1.5062838249283705,-1.8497690414796353,2.3010853953890082,0.4595804461972507,0.6332454320091427,1.8372715872974574,g
-7.784066060444957,-0.5403708073345127,-0.06815646682620632,-0.9784715062322628,3.4821633525051654,1.7446340028522296,0.9067045376470164,1.5010989988362806,g
-6.627474570654536,0.7944111842737019,1.3099312582347946,-0.005563512531016635,4.576560197483738,2.8867076479070652,1.4307615368684572,1.3192365631540581,g
-5.678986712988116,1.8722390508768778,2.3877230825047064,0.8656513649480247,5.333721991454798,3.6103233074774805,1.9251990385596751,1.1713940491859312,g
-5.195492554892851,2.493638410756931,2.961431813627605,1.3891710125917245,5.568616753050827,3.725459186389054,2.044533473173383,0.847243288938207,g
-5.224525417689317,2.5939552612860473,3.0097049841738097,1.4705763361785895,5.285802729356127,3.244960989922325,1.6313679440056692,0.22646412378907418,g
-5.504526735410087,2.369602860305501,2.7470792773654606,1.2765776831797786,4.705231463134388,2.3890440816477674,0.8420271023541922,-0.5841299525984874,g
-5.6501783045331,2.1434380339351535,2.4921727451380824,1.1396269612821495,4.133600499964487,1.4655113771355293,0.047847510112186534,-1.2661131055890495,g
-5.449007498912426,2.0881194436363115,2.453433910291804,1.3262693636636826,3.77676069388313,0.7081371608467206,-0.40692523975496026,-1.4626866040184732,g
-4.957177283086945,2.1429749065049637,2.628300303860621,1.867895256025904,3.6545640801364727,0.18642589405796758,-0.40425857775024754,-0.9957689900293778,g
-4.358015990591642,2.179140095187455,2.8800815022246935,2.583727279873044,3.6699711475551196,-0.15651571974983672,-0.06512556371703666,0.033784789797992196,g
-3.802118664315607,2.1557922447178184,3.0894187061535314,3.2529332221147795,3.7442950195490368,-0.3786136139292086,0.4145669723486254,1.3443277304413281,g
-3.3487846646796413,2.1289400220560704,3.258905955322902,3.7899350940113563,3.9081115476871773,-0.43419454622600623,0.9519655910158094,2.6897166419491754,g
-2.952901650099434,2.2152335493847777,3.517233799157295,4.293990643888116,4.29342140223456,-0.18666263061289123,1.6210702668094286,4.007873773555109,g
-2.4921849423407103,2.5509099812779805,4.012570178464221,4.9341366296192195,5.022609343217893,0.45837540115694686,2.517357164234165,5.375369964760535,g
-1.8956820605081106,3.1606327927742517,4.745450250478099,5.753329631729869,6.0539855435459895,1.410754310856609,3.5765924920244174,6.820265500255772,g
-1.2803511211483336,3.820514990013843,5.486479063580537,6.564698464602161,7.121172985060587,2.3883008804108776,4.530880766221776,8.175727317800044,g
-0.8963582258837741,4.161211133702194,5.901325743363985,7.058093820646121,7.869540384837476,3.084488112891399,5.065132533237663,9.120030822875233,g
-0.9041826232229779,3.990992153144675,5.799455257443422,7.03787903615536,8.103409915618721,3.3865309868547704,5.052601894207027,9.383473697756168,g
-1.2532873067248171,3.4678125104657647,5.266106731030865,6.57131541459348,7.915789574110683,3.454777853341934,4.666505381147273,8.954919065933515,g
-1.7905394113376478,2.9118551773123422,4.556265451683897,5.914542815671513,7.579106174825593,3.5883478989017874,4.2643983595151855,8.112252606168814,g
-2.4137614870212185,2.514228717976608,3.8799661992754353,5.3020719441006,7.315271307694883,3.990005997758048,4.138530936336681,7.241385523664166,g
-3.0899411014804987,2.2602041572581313,3.2774000182823775,4.789774238778638,7.152226772774395,4.623972511296378,4.341932406254971,6.586077599443762,g
-3.8070341399691907,2.028556094323642,2.6427970975127315,4.256366474479885,6.951363519387684,5.267495568284074,4.726400813251642,6.131189837215388,g
-4.572494464097854,1.6746903793848378,1.83542934948709,3.5326680265153385,6.544472701150144,5.69150048033409,5.1309625652948165,5.702352025063578,g
-5.402744749761468,1.0970761042995627,0.8048452392219471,2.5570161216717193,5.874059421501403,5.813701019721154,5.526115308204885,5.171435212888582,g
-6.24909717383363,0.34240235664801044,-0.3440923829090342,1.4455277192776503,5.043344289587639,5.709397651109219,5.979309524539629,4.5737614032999785,g
-6.979737196762045,-0.38424551508262283,-1.4172843509230253,0.4141342547570174,4.2285141098932035,5.492128481435335,6.497196244418463,4.0451398010865685,g
-7.502524721894337,-0.9113109331987037,-2.293192206998059,-0.39039261254093766,3.5178748439487926,5.183835534172506,6.924557577070312,3.6640987195802466,g
-7.871889722015096,-1.2881813681998,-3.0160249320487833,-0.9927434829910755,2.8364905823434663,4.693378832386393,7.013585891355675,3.3619141147800375,g
-8.213329389729926,-1.7111801622818188,-3.716010071499736,-1.527735828666708,2.037621167772827,3.912396776870696,6.597186734985636,2.9796387187384683,g
-8.581013069255778,-2.3031405195702446,-4.4643378652685,-2.097200278823582,1.0498525147997593,2.824929564290671,5.697489327164261,2.4058059598714108,g
-8.961288544363757,-3.0558828937353515,-5.238239833053178,-2.702383729630077,-0.08552990739075383,1.5273731794689156,4.474879467445156,1.6632981465858165,g
-9.377982882226732,-3.9439955312324244,-6.001723601228277,-3.2930580633780524,-1.294390588220007,0.15933662344652805,3.085440643371439,0.8773988294303626,g
-9.895360469641044,-4.959312272175003,-6.764397458047578,-3.841045153019894,-2.536915677406244,-1.1712785538752044,1.5955973157604972,0.172420978501001,g
-10.516276839704494,-6.026382822896639,-7.555345516387709,-4.359181400217852,-3.7937705815200795,-2.40791971654746,0.02754834719076289,-0.4028076048855507,g
-11.154658786560644,-7.010018549239257,-8.377254600260486,-4.876428123202989,-5.029577819179113,-3.5241986885472967,-1.5348071683373368,-0.8690868521745905,g
-11.708301834189328,-7.849505939396349,-9.192865574625277,-5.40657555001021,-6.193853584398819,-4.508711474193489,-2.91326697441565,-1.2657854935102297,g
-12.127117759322811,-9.30267883428475,-10.483883851741053,-6.372626245279582,-8.171433542421216,-6.172973924765931,-4.575001952444161,-1.983880635272925,g
-11.663909464384425,-9.914192760934931,-10.793990053694477,-6.688412552486108,-8.998042954753139,-6.975729173739621,-5.019084803056937,-2.4205784230839,g
-10.55491741336236,-10.3411332938059,-10.842546074123556,-6.837536998019639,-9.755933840296809,-7.8086650665113,-5.522057750143604,-3.001369142972627,g
-10.554917413362361,-10.3411332938059,-10.842546074123556,-6.837536998019639,-9.755933840296809,-7.8086650665113,-5.522057750143604,-3.001369142972627,g
-8.716029344999189,-10.459911654505648,-10.597094832328503,-6.762625746052274,-10.383835528831751,-8.569657132635468,-6.187035292808352,-3.6961083573153575,g
-6.0245443580030305,-10.037252189466136,-9.90025050980608,-6.309791667933768,-10.648291385050195,-9.012825884922625,-6.83315407999073,-4.319708781785108,g
-2.3331290910652784,-8.773280054119741,-8.50027126382477,-5.255069707277178,-10.221986896389947,-8.856082550083055,-7.098875262183816,-4.6013722695701995,g
-0.3891634970310539,-6.548325723922396,-6.252146878679021,-3.4636407337811463,-8.914618202729375,-7.959197951859977,-6.714282976029699,-4.360950031701456,g
1.7154811400971777,-3.5909012385505497,-3.2898137596495034,-1.036127129858229,-6.84866412997628,-6.432386966901587,-5.714965711673287,-3.6504124265488733,g
3.7606133540901583,-0.33078662638423406,0.019122416391520326,1.716755325787377,-4.399834087325848,-4.580432133390187,-4.418912512417058,-2.723395225320264,g
5.545016330260818,2.8800503881945754,3.287814304776057,4.455802551217592,-1.958494544996207,-2.7250509684403563,-3.198088559972681,-1.8414136188212669,g
6.904073430762014,5.878073232399765,6.30321391849259,6.9972485926103,0.2821883478083338,-1.0385021759296296,-2.2365694731031054,-1.0710920588759736,g
7.718357276239296,8.637366505792789,9.079746030357118,9.370840242493086,2.374021574001308,0.5014961811702084,-1.4512468338435371,-0.2378323993404044,g
7.93866181305651,11.217689234849502,11.765974569876098,11.724054668081404,4.493531311469683,2.0135991777594535,-0.6160088369008896,0.9210227243919176,g
7.564424290150652,13.686170745728166,12.317603253376342,12.077353173015812,6.730038561328975,3.5432886262572274,0.4110737710418119,2.5151902579347287,g
6.56619753340874,14.045368297554365,12.517486822619123,12.144538528140465,8.923395514685245,4.955930709198446,1.5335973848284001,4.363252428087032,g
4.866623499629169,13.87138530995145,12.237663659643484,11.8006587598202,10.710068054766248,5.99897557461877,2.46830472323934,6.083755568631986,g
5.178844753604817,14.787846242917903,11.407198874911275,10.971721763118332,11.78571169838538,6.49982272404487,2.969203335176643,7.358086829384223,g
5.433245334530105,14.903706191325346,11.917692994695797,11.462559016008612,12.159573893922468,6.525544459281532,3.0311905809309274,8.150184425146646,g
5.632711513227737,14.596096817427773,12.016908690597234,11.61339439366687,12.15178911605771,6.351072284735257,2.8945093455325153,8.696937229151429,g
5.78012956052042,14.281853589939553,12.093122519734862,11.79939999358139,12.13988830650359,6.259723779460819,2.8562202287141494,9.284094117786733,g
5.8783857472308565,14.147968750000837,12.309626478729472,12.162598032786889,12.295612534227624,6.348987878564197,3.05745264898803,10.001888537444202,g
5.930366344181758,14.13655164556106,12.538940932991693,10.627106194269565,12.514164267354342,6.494271214702098,3.408017765210933,10.672449773198718,g
5.938957622195826,14.058874862035239,12.50185888367978,10.696289686600904,12.540246078901465,6.481688268175711,3.6799457186002558,10.9875479849254,g
5.907045852095767,13.716601186598211,14.126302253330318,12.296797860079497,12.17510259423079,6.195327914619689,3.6827169356510736,10.737758532932963,g
5.837517304704287,14.961624226508135,15.534286153698934,13.631450938639995,11.436957745742491,5.71598499631206,3.394627386705296,9.962808327546096,g
5.733258250844093,16.10319847590989,16.810983834908434,14.824438469141413,10.568415622430013,5.260594772578969,2.9641304651049056,8.92239134165292,g
5.59715496133789,15.540305636028318,18.08858168555032,16.054834462611385,9.86524122411557,5.017062010929235,2.587546892089411,7.920285237170364,g
5.432093707008383,15.341371428682177,17.641447497930294,15.708598131743273,9.455137760316152,5.0150024292012025,2.362644220488729,7.118803804214456,g
5.24096075867828,15.345314165549558,17.414394935606214,15.637759144837,9.226050659659819,5.1368099811936005,2.2342420436685217,6.477824938242769,g
5.026642387170286,15.28153938187406,17.143306934889882,15.56268370115101,8.961854414709611,5.242605537387974,2.064298703500211,5.845954120346079,g
4.792024863307104,15.025074470761961,16.672730047473767,15.294719646822,8.535807702876768,5.286097469512313,1.752573306448537,5.111884264535819,g
4.539994457911442,14.61355695097717,16.027853216879485,16.748545211624627,7.986274547138604,5.325424843334358,1.3054540519119353,4.290709740365271,g
4.273437441806008,14.116026673205102,15.331544819839156,16.231155506034376,7.451523287135766,5.438855337210742,0.8119005141728856,3.4907617273335605,g
3.9952400858135038,13.576870200635653,14.687666710229863,15.768439075753832,7.056831878859478,5.631319856628743,0.3641205259330077,2.8110762170873373,g
5.829311501583712,13.023509744123377,14.113722375676437,15.371101294543521,6.836021843999928,5.812176923342418,-0.006635371133471046,2.2700222218581887,g
7.4014593823725034,12.432819708984944,13.546954899105732,14.951389358430243,6.726199997335611,5.86240683387596,-0.32932227299620764,1.827826408622839,g
8.77699305599663,11.731809455569186,12.92547342406009,14.416549044821778,6.645697057483886,5.7387050481672714,-0.6311656178499744,1.4760945983751241,g
10.057253979325417,10.91916933261407,12.284534922395355,13.773599568497895,6.598844739310623,5.526376834437968,-0.8742335662434384,1.3009532659170144,g
11.365878365669083,10.145864219118973,11.751882847963085,13.140193973958887,6.691010387338373,5.387038399063245,-0.9599248199022936,1.4438379543630986,g
12.76830528570309,9.577539729190258,11.416915701505157,12.636896575527322,7.0122184683927715,5.438637666717561,-0.8074260535863249,1.9796922170582651,g
14.187499334817042,9.200257063274421,11.218365264032727,12.27099635050697,7.511459688803688,5.672437548651873,-0.43053579906547934,2.821994758946392,g
15.43764860383909,8.856398882200896,10.99238920385349,11.93837650492535,8.01072679465754,5.977433903916046,0.06646891961111281,3.7518889265746793,g
16.35972542800072,8.45489188852414,10.622335839837906,11.531225388183552,8.340511177162877,6.238479118294626,0.566809945004016,4.554736474995945,g
16.912815582318053,8.048954062663423,10.115971867933881,11.026420759588362,8.446054187938735,6.414084947906666,1.0108407513842637,5.144929874435047,g
13.216863018260776,7.503555031612267,9.025141125757582,9.960223259491107,8.255018897492748,6.672127825804274,1.7404576775333531,5.935814549892848,g
11.54160162465897,7.426323965687106,8.565572067794843,9.507682129638926,8.160620155216922,6.8456303867014245,2.040261914840182,6.253351370374013,g
10.061137317870708,7.521418198377359,8.18131384202849,9.111834345531694,8.156555131005259,7.048152171662203,2.302056105415119,6.468921604901193,g
10.061137317870708,7.521418198377359,8.18131384202849,9.111834345531694,8.156555131005259,7.048152171662203,2.3020561054151196,6.468921604901193,g
8.746361782867371,7.747568091811819,7.848783075801846,8.737906699834152,8.245147815948,7.249386590877117,2.564083348414278,6.513367730146827,g
7.54397322180872,8.001229679845364,7.56583869416972,8.373936852088729,8.406110700063232,7.437100503698266,2.889070234968082,6.390103422508014,g
6.500856653344601,8.245760358879709,7.392464443702311,8.061071080520644,8.642710163582661,7.625265786827763,3.3056829806029304,6.180005140953509,g
5.757300262789922,8.54171513896529,7.407412154191553,7.8580562857237695,8.973910153011406,7.818829316395082,3.7477091549327346,5.959354970849445,g
5.384526415737554,8.905455716029945,7.610997818148928,7.770046532216014,9.380943085723407,7.978480445697874,4.066147920692642,5.718004706679842,g
5.292694465435935,9.231158061554508,7.9042555558303365,7.736143148602165,9.801246318045223,8.042939886578008,4.139427329217524,5.3755986210186695,g
5.328090095285413,9.415898674748615,8.181885672706938,7.70246595000207,10.198129929946884,8.000089759319025,4.00247321228057,4.892539260506828,g
5.389281322469246,9.47757938721514,8.415155045930936,7.68653894972783,10.608284461531042,7.928507474235827,3.863115751867224,4.360080782583141,g
5.4054867814408825,9.471288534505936,8.62248626696035,7.743233502184071,11.089210612929959,7.9533886326925245,3.9576812612291263,3.9602129911259007,g
5.2753405595541505,9.358661447252965,8.787154041278576,7.869610928084052,11.629887669356327,8.151932811536982,4.354555141381363,3.815832558745228,g
4.89851090156075,9.045053632933264,8.829307408872884,7.956587130864316,12.132105655709665,8.49383436885619,4.883841027875491,3.8717719367307133,g
4.228953257956312,8.491064567297308,8.637806442075892,7.8331825745047,12.468293676272143,8.865135447938032,5.2709139485611205,3.931830520280505,g
3.249942826777341,7.705177429526256,8.11399279894111,7.364307670167664,12.547793158451508,9.15158588261997,5.369484891429089,3.8361624126165994,g
1.9565871210770012,6.684605741100292,7.225791335870643,6.542343681684952,12.35742141885266,9.31434566193352,5.292052041180793,3.6261185583985585,g
0.4364959466318661,5.466526995467801,6.0661331444287026,5.517807465811242,11.972636399116363,9.395545048326106,5.313457030693628,3.5385505295756774,g
-1.080191585820169,4.198594464676623,4.839857552867013,4.525877048988943,11.514073604565162,9.442147618392326,5.618375622993389,3.8154617029673354,g
-2.3487860804630665,3.043510091947356,3.7385098809763897,3.7355628634261357,11.050347044850898,9.410835051340658,6.110049631636153,4.486171852716794,g
-3.2903358642504257,2.0173392290419825,2.808948418010214,3.14294471867834,10.531599890222253,9.148419132570107,6.454105704051456,5.31303978867029,g
-3.9928557415920323,1.0111883966236488,1.9537690033068178,2.610455150909838,9.833265740605974,8.480660519821315,6.323155116853152,5.94510479938118,g
-4.557171433179822,-0.036431548013610815,1.0486566938785125,2.007575278778296,8.86551162160261,7.339860420634489,5.630369053196432,6.140113759919258,g
-5.000307923093321,-1.0734611372388403,0.04866485039527886,1.3163836107523228,7.6394517026103035,5.829868324998556,4.567024866279093,5.877087245011606,g
-5.271500999061773,-2.013943741724932,-0.977620368016607,0.6362132135168502,6.26474569929476,4.191743697941445,3.4488290137424356,5.305494928983363,g
-5.269174873245106,-2.7668233211531215,-1.8606719995985543,0.12684745242119,4.927877628435861,2.7073547751038634,2.5251057343797823,4.612989869292115,g
-4.860113509455436,-3.1897509953548164,-2.393737102159011,-0.06734492797168055,3.851595307187355,1.5946979052064045,1.8879854578173565,3.920579234603126,g
-4.002013032662481,-3.158929295287009,-2.4664827452947717,0.09752256783304589,3.1961674813526892,0.9347708875720274,1.5026500974447685,3.256141236983833,g
-2.8858455468466175,-2.7484416587015894,-2.1804741361688165,0.5135736703311402,2.9504147910724585,0.6625073642835799,1.2945141163958578,2.595219299336963,g
-1.8681740711490782,-2.2442010726965003,-1.803139464150632,0.971621364955862,2.9348641594731175,0.6321838164412495,1.2179482095350658,1.9239330007651056,g
-1.196644741866687,-1.9077429949777347,-1.5681949249746545,1.2972364628193,2.9413788589729433,0.7166689860610148,1.2661354527927489,1.2744856793320243,g
-0.8261929086530178,-1.7751942702912593,-1.5083652734866653,1.4556531037626654,2.8816016259247084,0.8701419724289178,1.4356048658112959,0.7157856135339004,g
-0.51058488962904,-1.711609113814213,-1.461934858843806,1.5421965222851137,2.821864776671334,1.1179670081713764,1.6977661239266237,0.32593412273408817,g
-0.018970713880531377,-1.5740485409612734,-1.208701552043087,1.6951523720291373,2.9107893404305347,1.4974606391413003,2.0107487232369596,0.17650528928050527,g
0.7316788332910866,-1.2784525095607078,-0.6141037826758591,2.012095353231677,3.271493797294705,1.9993508214728788,2.345619008100429,0.32114037300665127,g
1.6470846465713134,-0.8132239044834929,0.28707262672848854,2.503584723182461,3.9097413858085575,2.549900493114161,2.684079802289081,0.7698511383348657,g
2.497036346612766,-0.27756874434607864,1.3047484814058878,3.091255797985868,4.688043834516576,3.052506092263793,2.99716129589768,1.468697876224508,g
3.071384118440732,0.16781132891553335,2.2264312543407376,3.662973828263026,5.413091609996486,3.4698438222478707,3.252505770368483,2.323625570741295,g
3.3876342665636914,0.4877044791094477,2.9859204622295623,4.156805769262857,5.986954079038066,3.878426975927429,3.4552729303813963,3.2597371079927426,g
3.7081350979349152,0.8608036396759082,3.6952840168220584,4.5902680592615726,6.470777292334833,4.426841887210833,3.667715497335265,4.255524735126668,g
4.276543078231263,1.484914324324384,4.4870034308928535,4.999038858144182,6.986204592002201,5.213456319988525,3.97078766238619,5.316053975818252,g
5.054371880155928,2.327638244950607,5.341054742190315,5.367371640481288,7.573284214757909,6.191055720484181,4.404499482013448,6.4221135141324535,g
5.7653436113070615,3.159876569185948,6.091930775907933,5.645812860615481,8.167514000124138,7.190190868910506,4.948714130315603,7.517903926820355,g
6.163169381088129,3.804891716145952,6.585686452288485,5.828159340470377,8.693109976898679,8.038136211687007,5.554853748395014,8.54912835686871,g
6.203331553087423,4.261551303802747,6.801374641694207,5.980130987465065,9.138585336785018,8.664375627384606,6.186273458134429,9.503439456308712,g
5.765021334100033,4.930200655158694,6.850935835821295,6.481147742181736,9.948308554663331,9.448681323515126,7.474012247891167,11.245816139165019,g
5.619885572963115,5.247760056764441,6.914862207501196,6.826464062648479,10.341753704586171,9.694102777937612,8.081251572224563,11.94890754779245,g
5.577585316042643,5.530252436389208,7.001111463421391,7.124643289550207,10.647717958846766,9.767654162981156,8.564388798004211,12.342820326638273,g
5.577585316042643,5.530252436389209,7.00111146342139,7.124643289550207,10.647717958846766,9.767654162981156,8.56438879800421,12.342820326638273,g
5.463280209449421,5.633713875936032,6.973134631929471,7.264770907301736,10.745412919685695,9.560025730864293,8.805884412877717,12.249594135042344,g
5.0777336704669285,5.423960076380925,6.718707726281775,7.1935227128118395,10.556825374314132,9.039262381542319,8.718273657220537,11.596271768502826,g
4.419001828788667,4.96901476135941,6.280153883879807,6.962958964582361,10.124979242258874,8.306649065896675,8.311785231709104,10.47619781911101,g
3.6997053677355574,4.518683083002811,5.830533258809584,6.6867517137896355,9.580967634855027,7.537519391253712,7.706744579450022,9.095837548174485,g
3.1358506968343383,4.245277624486243,5.509115928735996,6.428296373631106,9.020299435489562,6.856019853229969,7.065216801278398,7.640994925524559,g
2.7762977208983406,4.079488183052585,5.301564625829488,6.138489528974769,8.429235097494884,6.2603471464088996,6.484667099148959,6.170793794861966,g
2.532312618249241,3.834269469207892,5.078805286416469,5.709138806441619,7.734011923776248,5.658205248521315,5.929728313309403,4.6236052549591555,g
2.2777778189134903,3.4021770995139002,4.717338423678774,5.077787946785938,6.895117832683513,4.964615010176338,5.255834188385724,2.9247059082094298,g
1.8963541788087206,2.795538613659983,4.186381338637192,4.2901240586128795,5.953796247204354,4.178207234832716,4.324044320854225,1.110651126362394,g
1.3430075139667337,2.1098277372751726,3.582690347954492,3.4986186821319243,5.0315724342257955,3.396467643700632,3.140240262611281,-0.6233859255502399,g
0.742796050963441,1.5341901785603216,3.114621820012065,2.912021243359155,4.303955277753688,2.7754424705273264,1.9076571741373094,-1.9997181223067884,g
0.36355823137556786,1.3016449232048055,2.9975888204376795,2.6964575914508986,3.9245770127021706,2.454636787393755,0.9219743496110656,-2.8209688452073873,g
0.39556072600393277,1.4990786677722994,3.2925773959769535,2.8658065657780356,3.9153959345069858,2.4826722481203736,0.3683295748023201,-3.1043676676892824,g
0.7622948703158421,1.946467083695279,3.83527161391157,3.2578718249951173,4.1269668217640705,2.7889068005822724,0.18308380891724974,-3.073927827506072,g
1.1784123600546927,2.339920604728041,4.3423783183072775,3.6389877507765425,4.330852988944168,3.2164459276007262,0.09890521367810926,-3.0067395764572673,g
1.3546587507856531,2.485771635427916,4.587123262679429,3.844255961718339,4.358644923079274,3.586329761469184,-0.16240098500915953,-3.052391445177501,g
1.1292455557162147,2.348475387782554,4.487827395962557,3.8335934268343266,4.167581296020032,3.759277956947404,-0.6947274968161021,-3.1556540308994356,g
0.504798129833854,1.9614234084648956,4.097918953659577,3.660066902776078,3.828359630238345,3.6877257731801265,-1.3388204884052033,-3.1142311211491758,g
-0.33160807482398597,1.4179907582508204,3.5702746169715205,3.424641301129184,3.4945582255651915,3.4455074658432374,-1.7746092850006356,-2.709047698328241,g
-1.071201454699494,0.904960402709162,3.09706464507413,3.2399259728466965,3.3498656785085337,3.1969218093519123,-1.7147373903338017,-1.8250653271257313,g
-1.5003335550403856,0.5886621431999525,2.797103725422886,3.17586271666159,3.5051195445515537,3.09454524594459,-1.0807387018038905,-0.5090724822449859,g
-1.6947660225856693,0.43072193451780133,2.62341438203323,3.206268399882896,3.906798835037653,3.1711124019456105,-0.05050588726020115,1.0529285734122573,g
-1.9503101420251974,0.2021227568878059,2.3978403264803143,3.2143203352394436,4.356656668388794,3.315477876692943,1.048423284173896,2.617638734702168,g
-2.5172782617346456,-0.30053951537395135,1.9459404082487866,3.0603761640278293,4.632540916111514,3.3533346273612694,1.9194441299646847,3.975679773923704,g
-3.429598352043363,-1.1095829196532014,1.2038315641570225,2.6563306146144314,4.602062750917386,3.1695308879273805,2.4365654236941396,5.00827484906768,g
-4.5316429249079055,-2.117686493868546,0.24277314920523718,2.0122436251653277,4.266648308518912,2.789903615243503,2.6776171700049987,5.6960786294056,g
-5.56494944741406,-3.130407941050165,-0.7522166440134203,1.2508465340178345,3.7505424412978017,2.3729041842776435,2.848868356047217,6.0834941764341135,g
-6.251247020290128,-3.8904339433762862,-1.5495296208552474,0.5616914188291039,3.235888331926619,2.1073253188767103,3.138170548278625,6.20665991802899,g
-6.439276472291118,-4.210933627120118,-2.0075953126937733,0.0787430420021656,2.836205667195693,2.0719520065879413,3.57161247279988,6.020785722942416,g
-6.245950803819538,-4.175218288429281,-2.194773099432262,-0.23369187003969555,2.4893191750562367,2.1614289394610795,3.973912063683868,5.393996097287005,g
-5.985617142291745,-4.118529503732573,-2.3429626523892075,-0.5553005038172096,1.9972718990483536,2.14912839895588,4.079722564884558,4.2016144848664565,g
-5.896892577870021,-4.327571228830468,-2.6430316885374308,-1.0420126846911089,1.2059047204805793,1.8402900401273392,3.718039172622037,2.457537821834707,g
-5.959400618062766,-4.794203387547493,-3.0806276255004077,-1.6756651849206168,0.1523885615173537,1.1871669309345922,2.921408293217323,0.3642259375571456,g
-5.974546876199732,-5.286090217576536,-3.4580681928006776,-2.268911940852669,-0.9526616510474181,0.2870086365942022,1.8840704403195918,-1.7736806984803983,g
-5.7490647433794235,-5.569162788007906,-3.539450663038303,-2.597552808850519,-1.8616555968116075,-0.7025493406565013,0.8269603526435156,-3.707875228335978,g
-5.187442985505066,-5.517368499108848,-3.184575204962349,-2.540698911092916,-2.4214922311004807,-1.6481836770543576,-0.11937082212974492,-5.35871814781847,g
-4.328491887762776,-5.132645199870774,-2.4265159684108495,-2.1536274702674936,-2.6435871617265834,-2.48096164991212,-0.9520600217322454,-6.809753765501701,g
-3.3926479571664423,-4.589592815379032,-1.4881904899242362,-1.6544668718733455,-2.703128836262423,-3.1916047294147694,-1.757518152836424,-8.200150199307606,g
-2.7335918664679046,-4.2043653745155565,-0.6973724581556493,-1.3211996687737577,-2.8459907182960094,-3.7929922215582104,-2.6309242390144654,-9.59246558362608,g
-2.6275912306418454,-4.220325053810003,-0.31001393662214094,-1.339782475203822,-3.2271113600850376,-4.269328905537506,-3.5942783063967894,-10.89991196307501,g
-3.0889168468108985,-4.602955492098518,-0.3719274167046654,-1.7070080592536052,-3.796470435275346,-4.542609214359848,-4.54960153614909,-11.908757985564524,g
-3.9144693967454343,-5.096905033869568,-0.7344151806390156,-2.2617163530290307,-4.329776644298208,-4.478458773088191,-5.284467797345293,-12.363136655739037,g
-5.789682251191304,-5.54862417321001,-1.5342443717484002,-3.178031472101421,-4.312742241166099,-2.80652027022741,-5.051539515754989,-10.86721222030713,g
-6.602394751083399,-5.361147233076151,-1.7332701915909141,-3.357207513742471,-3.551846809466005,-1.1499529010428253,-3.790762353121818,-8.84525427558341,g
-7.345974087853153,-4.980375484377172,-1.8511544666190383,-3.418713027432722,-2.4260868178037174,0.8254484334759293,-1.9284465131617743,-6.181034053302637,g
-7.345974087853153,-4.980375484377172,-1.8511544666190385,-3.418713027432722,-2.4260868178037174,0.8254484334759293,-1.9284465131617747,-6.181034053302637,g
-8.172533867874417,-4.622745541328782,-2.0656608874642934,-3.5230400268391238,-1.2135712107768077,2.7803190391193184,0.14728331878938458,-3.193085990221375,g
-9.197786777149743,-4.4922636679616685,-2.520575721488617,-3.8041292089281953,-0.18821604871302428,4.3876091674550155,2.0202170969734263,-0.22496387403253504,g
-10.314529417952517,-4.568375821136803,-3.185840947656552,-4.259894843223857,0.5247754261667312,5.47297831898585,3.450409631677725,2.460727867375612,g
-11.219418824441666,-4.614790805057463,-3.8703867584987557,-4.752450959978768,0.9644812704759695,6.047101595461893,4.448247018379831,4.712075118538816,g
-11.655238570732838,-4.4355291842492734,-4.38732814633615,-5.135187956438292,1.2056423717788651,6.205382250839134,5.157746029405912,6.4180391561692405,g
-11.595111164976185,-4.0576782929202055,-4.700802100089751,-5.388627245816009,1.2247979656385808,5.988274700203592,5.651504320960008,7.41504838562273,g
-11.207975395705862,-3.6550742552686906,-4.928150348766641,-5.644392585932787,0.8856340208185778,5.326429905112168,5.815870076260885,7.478623652214627,b
-10.72119441835677,-3.390985824923032,-5.237072631969885,-6.091655238276098,0.03240439763523022,4.1135587614625475,5.423425312739525,6.433421018428801,b
-10.313954591811056,-3.363705632207259,-5.737317249290042,-6.846035536052706,-1.3935583871261759,2.3364308411317247,4.326259846861629,4.300016210299742,b
-10.034890054541181,-3.58927902174045,-6.417030219541043,-7.864201148951532,-3.280932438639636,0.14350863892091895,2.60245995443907,1.3495842118540469,b
-9.765298404075143,-3.9580588987043877,-7.150349586158761,-8.959350600850604,-5.36499147100685,-2.2129434697830668,0.5331497663223811,-1.9961054640146698,b
-9.331505501843136,-4.288281801018541,-7.792076270994011,-9.921835025593527,-7.351123433636967,-4.516379845620817,-1.5668688287894046,-5.35667575869874,b
-8.714311111047541,-4.509257026747322,-8.293181656388558,-10.659777439093805,-9.071821641566645,-6.687325460192385,-3.5235879236793743,-6.70533953202457,b
-8.101839576525308,-4.7409789850839354,-8.711332966799615,-11.22935777095919,-10.537049300218028,-8.757362626510595,-5.348661842243238,-7.603037081033318,b
-7.686996671463135,-5.123492557457235,-9.09827774058534,-11.721821655512526,-11.829140856659244,-8.961267937281452,-7.13579262715276,-8.088762371725021,b
-7.461168444127793,-5.624036363729703,-9.409436483145488,-12.13163979666827,-12.963147206990902,-9.034603890741888,-7.32917973747517,-8.20898426596477,b
-7.2640189600581255,-6.090508637136065,-9.555412463447308,-12.350102778593007,-13.858877310377192,-10.412842893367515,-8.969056228745172,-7.964302426888064,b
-6.997489384265199,-6.441943544236745,-9.523842405600869,-12.280755091641247,-14.422351675404418,-11.163545699461022,-10.263957941051327,-7.332320435088479,b
-6.734504960979535,-6.713329779973134,-9.417014034429119,-11.94530804338898,-14.621126369260642,-11.196320852306206,-11.026696321779005,-7.707702784059846,b
-6.651180516064235,-6.948901761597996,-9.372421803995369,-11.479912743845938,-14.485501715450392,-10.56729998245433,-11.174749109527811,-7.240382379211101,b
-6.90370294165415,-7.147844059516754,-9.45975202500767,-11.03784356259967,-14.063639496284617,-9.40763341665066,-10.726097967738983,-6.027020652344818,b
-7.522815095724665,-7.293890097516763,-9.633307160517315,-10.682747785679542,-13.378481805843567,-7.8410893315372245,-9.74752923004811,-4.130060185615918,b
-8.348460680741448,-7.346756821313592,-9.758521239916027,-10.354089107780949,-12.414856105897085,-5.969519482796386,-8.321637590274454,-3.3974475728925553,b
-9.099347271405296,-7.228378938308509,-9.713102725922507,-9.943071492010166,-11.161140702586781,-3.926868944374251,-6.5568225722595885,-2.3165080485583713,b
-9.606343950584158,-6.928868226714654,-9.516846888173662,-9.431557574890542,-9.692617265785577,-3.708312597098626,-4.609875651491893,-1.0938519844549943,b
-9.984178842519635,-6.622426322024175,-9.362161213974161,-8.961778396862584,-8.20726276842169,-3.7310198476727843,-4.258455833517086,0.011410206771485498,b
-10.489303401287987,-6.551909297703858,-9.460647897229675,-8.739235042863484,-6.935211468410758,-2.53208329182063,-2.5338854827271007,0.7870260291222884,b
-11.182381626312594,-6.752282819520817,-9.823211241894864,-8.840695452430129,-5.985712067649096,-1.850229614174388,-1.1421920376636572,1.1588442758032351,b
-11.78561676651019,-6.972078404248174,-10.201326253048038,-9.117751377417914,-5.291870104010398,-1.5396252727426099,-0.11959629373307896,2.58720403590448,b
-11.885720426099734,-6.907365357875795,-10.25597142478634,-9.294272317720202,-4.711450307328146,-1.4097229914516087,0.5626329019492025,3.307361571112479,b
-11.234428209346792,-6.448652274665366,-9.786669024981016,-9.160042984629543,-4.170889373468284,-1.3602632622368498,0.9462636439787528,3.4510682347997887,b
-9.878038263642228,-5.691799021220055,-8.833358951881596,-8.692195154412712,-3.720099316520577,-1.4176229998931074,1.0487218930601216,3.057088594056572,b
-8.10259863600326,-4.818798187178622,-7.620077250691142,-8.031833778795662,-3.4818857394097207,-1.6563348209525592,0.8665389193885483,2.08629064881976,b
-6.281932751031368,-4.0166433776882915,-6.410501203157184,-7.359280252149065,-3.555355758357338,-2.090159089050348,0.4141212847161698,0.539808432612897,b
-4.668034497027076,-3.3997515463178365,-5.350294139442924,-6.7586991140379356,-3.9282816456899794,-2.632109398921096,-0.23736938493166368,-1.4294082005542346,b
-3.233234293048406,-2.911643013746897,-4.386697952668928,-6.165467538897319,-4.454081449610765,-3.154663567475986,-0.9664257359481006,-3.520806133910966,b
-1.7445492568666239,-2.3591887106106095,-3.346766823712234,-5.4442818639661485,-4.937987023199133,-3.594510737259077,-1.668261021882896,-5.4232393412933755,b
-0.04112217154572999,-1.6245246084685951,-2.1231499189197542,-4.533456583379248,-5.280270621960364,-4.005539221448071,-2.336096767112063,-6.982561220435545,b
1.7895803020737318,-0.8016036077782882,-0.7833251617796491,-3.5096141854346152,-5.533015090127239,-4.503397482016629,-3.076739109754562,-8.255510755634383,b
3.52669246471275,-0.06749788418012585,0.5014424488155297,-2.5066722026947903,-5.804365394076725,-5.142179918828409,-4.02674060702377,-9.394350652812061,b
5.030722326767682,0.5118418377746864,1.5971335790600214,-1.5919040154464263,-6.123172940146589,-5.833431157230258,-5.225777968094814,-10.455888912886198,b
6.286204221574947,0.9663701122417123,2.456127776411895,-0.7412733589854726,-6.413272138312881,-6.384230719047036,-6.547100859260564,-11.297690113951335,b
8.045529446166618,1.4056229965144689,3.4347804575770695,0.8415923465166589,-6.576104052255718,-6.509773791575897,-8.573021561683696,-11.289658183041547,b
8.49825520921748,1.340835257301891,3.5463051302050443,1.452684541898615,-6.44294645198138,-6.148885525655697,-8.941274994970176,-10.212101137277944,b
8.626948018334827,1.167220742237217,3.407588250633501,1.8177550813487724,-6.253013413775154,-5.7102660697572105,-8.920795615608018,-8.617906876915658,b
8.626948018334827,1.167220742237217,3.4075882506335007,1.8177550813487724,-6.253013413775153,-5.7102660697572105,-8.920795615608018,-8.617906876915658,b
8.382658716846233,0.9258122947594634,3.0171369412901643,1.89327301801239,-6.077678417782342,-5.3196023764179445,-8.66403571835679,-6.788258212217796,b
7.745726111958115,0.5938827577578331,2.380920589858563,1.705009353627052,-5.938954588247907,-4.998958208034272,-8.262365413982808,-4.922598200093715,b
6.771064040891109,0.14959718960286691,1.519070866053236,1.3048178752233202,-5.811738621221246,-4.698559087985337,-7.690148483937273,-3.0878514961044834,b
5.522139247621601,-0.4296379280503045,0.4370489220662083,0.692084184462916,-5.694249095700335,-4.386037170405709,-6.8842725057589575,-1.310653994457943,b
3.9929333158183353,-1.2092220475360527,-0.8800465281482845,-0.20513192360310306,-5.6607340284931364,-4.099855995199977,-5.86805369898547,0.2971532849997892,b
2.198278431195374,-2.200695006330715,-2.3815070302007877,-1.4243486303500201,-5.7949331808817535,-3.9033368700151256,-4.78045329839617,1.529040485603805,b
0.3470310105773726,-3.192298640622375,-3.8538245100619983,-2.8283311308370287,-6.058271751152136,-3.7851131399243902,-3.778302708679309,2.2182000316814596,b
-1.1817581209694388,-3.802196145885019,-4.973320199289565,-4.10549975737121,-6.264991453837863,-3.6227077113764126,-2.9187856741216267,2.3821991060380943,b
-2.097111709201718,-3.784747359654415,-5.509093861709867,-4.952289086118216,-6.2235342815955494,-3.26758153535606,-2.147740734085443,2.2200022335644194,b
-2.401130645196768,-3.237954713790981,-5.48139057053705,-5.275331700708309,-5.903476195464994,-2.682424800320812,-1.4072426508849123,1.9472371818533911,b
-2.3377000116921804,-2.4839636559337537,-5.125875719854421,-5.230145082811963,-5.465521079259203,-2.002683598954241,-0.7542956615474024,1.6192032507625371,b
-2.1974991263981436,-1.8143158208748846,-4.717858082451877,-5.07722160132162,-5.142063428813736,-1.4573127416139926,-0.36225127960034786,1.1125167970815206,b
-2.1593397922338724,-1.355506364058371,-4.401771841777668,-4.981415430140713,-5.0684789268034365,-1.2003051028528953,-0.3740121123422792,0.2955915754822411,b
-2.201716512150602,-1.045299595164459,-4.115608735782407,-4.8960966811487845,-5.169172877927329,-1.1792635051901956,-0.7174366404835396,-0.7582188273105572,b
-2.105685989410925,-0.6520416860246417,-3.6474513694207316,-4.609657866203703,-5.176755965752052,-1.1499101182342049,-1.0584980204731607,-1.7150129432200587,b
-1.6294646958653807,0.0799091081092996,-2.8185306158730996,-3.9324368207329585,-4.806811592044822,-0.8404326261741873,-0.9752395928395575,-2.1568275829405827,b
-0.7740925304311818,1.172189212010698,-1.6743989997808204,-2.885564428371833,-3.9791684078508007,-0.14404457195284073,-0.2416457000859384,-1.860936874165045,b
0.1493070717309219,2.3231074034909804,-0.4968297314009743,-1.7210164612399148,-2.8880318401135696,0.8165397881611645,1.006331165553473,-0.9534786048731483,b
0.7735234173159383,3.157022320521646,0.400985539602722,-0.7447311409717626,-1.8445759429240831,1.800477351682996,2.3640573962966434,0.19063851046410188,b
0.9759948975327963,3.5392786390525828,0.895544720289509,-0.11048528524537135,-1.047167421483939,2.6268275184011003,3.4364307764676836,1.2195234139882638,b
0.9057007197021909,3.596029419315367,1.0813287958893043,0.23137121455781218,-0.489952569512283,3.2634864207061227,4.081153709483979,2.0331182577487095,b
0.7837871907745317,3.4992298674650173,1.129735128600457,0.4259044126604697,-0.044218442907602726,3.774383217563929,4.44094335035122,2.8032820139875,b
0.7455699156198865,3.3370690013005593,1.1546713745419934,0.5858883219520844,0.41239067044999417,4.203912913826035,4.763301452669202,3.79000363835168,b
0.8141699060578619,3.1430520370727253,1.1766318486177085,0.7453614368435557,0.9202629166161029,4.510218850605787,5.163332311524619,5.105396573918669,b
0.9164353665708111,2.9130306330189035,1.1515502148248091,0.8843359136557669,1.427152005032947,4.591190937578587,5.514220763917142,6.598163290647763,b
0.9299925035371658,2.5856889558658587,1.02749166471161,0.9761776850325685,1.8304860360757815,4.363688156504863,5.541273873576132,7.929768905204803,b
0.8047333311453471,2.115120999522396,0.8130769805531166,1.0251382390819248,2.054868366482384,3.8240391896568995,5.035496732069977,8.774937725951085,b
0.6558492623806403,1.5870402376699224,0.6040553676079389,1.0690648488472296,2.108090992951157,3.0501374692013434,4.019533601405998,9.004421855156938,b
0.6865817910790585,1.1904079725098415,0.5304621946357988,1.14794323221957,2.070621893637835,2.1703684080459844,2.7563483161252487,8.741577911679993,b
1.0290625551933505,1.0791605566962952,0.692995832683118,1.2891126204978247,2.059252670452566,1.3529962732227632,1.6213784695215803,8.280903459886854,b
1.7138298770918752,1.3464940373588519,1.173501241966685,1.543937855549943,2.2236098727240567,0.8175056513501499,0.9360115952130424,7.931535760851292,b
2.7494378087420417,2.104535202411852,2.0638350058402515,2.012504253952179,2.7320993581558204,0.7985016885885344,0.8422681156573573,7.865166005185991,b
4.103207638618833,3.4234368129998423,3.3923138930959076,2.7669564297275713,3.66478548789168,1.4182128226060695,1.2517136034332146,8.033633920404336,b
5.5754774267957545,5.120695758752442,4.988946407433735,3.7183141450060546,4.872378121518365,2.5469810515024314,1.8838923051591325,8.200670614393523,b
6.81019699352562,6.730792180763248,6.485332502620066,4.59429258312453,5.985719389061155,3.803568155461428,2.396684671921195,8.087988116589674,b
7.528046229393529,7.806249350386111,7.525124677715523,5.1066801856514905,6.64141193660271,4.753591539165923,2.563177264956812,7.562685181290744,b
7.73813660347862,8.242502741713707,8.008567167720624,5.174838854955589,6.746879593053812,5.1822310813958925,2.3961382188356204,6.743243793004824,b
7.700815333295134,8.290907969104058,8.146414258612799,4.999400805579436,6.548883244531867,5.229719497143054,2.130049090160604,5.938049707420157,b
7.714032160991971,8.319299348311946,8.286713362765571,4.919571838943568,6.449828544712919,5.271797768640848,2.0578230391517742,5.445434863620905,b
7.918288389469891,8.573298206493403,8.654243601797994,5.166844588895357,6.7164845660206565,5.624313241555801,2.3250714552121514,5.3530644334837465,b
8.203557762343578,9.039959849774949,9.177663356787672,5.695137636854711,7.286058668231542,6.296707229514115,2.8280367171475738,5.487390484321665,b
8.25569851844897,9.438185995184236,9.531253560134763,6.215673705564891,7.81154502226389,6.994090952971402,3.298800437547572,5.5590431008721,b
6.857208980925075,8.924152032505333,8.766178815331978,6.284023326037648,7.600381668076402,7.3168312818349195,3.504999092923415,5.0855256440122645,b
5.867404776142496,8.278964817523523,7.96737615054375,6.017877985333513,7.081071812526524,7.026282610785326,3.465427560542681,4.886658608223712,b
5.256431204757696,7.908371439586226,7.391624228030895,5.9341943811952715,6.73587615602694,6.786696513079019,3.617090995220778,5.012950349938511,b
5.256431204757696,7.908371439586226,7.391624228030895,5.934194381195272,6.73587615602694,6.786696513079019,3.617090995220778,5.012950349938511,b
5.075172260999811,7.887171155667303,7.135760868395839,6.104739442653888,6.663025816576881,6.697660403720559,3.9589175596609563,5.438330811601661,b
4.958249452901729,7.882621961880604,6.931562028125798,6.288003595258392,6.6220011433914205,6.57331583356869,4.239806569351565,5.906749833331605,b
4.4598688880805755,7.488207713898054,6.393269765495146,6.126275564433348,6.2559427223806034,6.102139244759417,4.135980826986421,6.124660832883764,b
3.395457035581213,6.539526420968758,5.328650797597158,5.429367117850491,5.381494875767713,5.104803593064041,3.4900878368550274,5.971415731726746,b
1.9382239017609748,5.159375476864705,3.86467240646013,4.3112174402987415,4.105991201908588,3.671335365883089,2.4197843399167254,5.558752826492208,b
0.4965300995949953,3.6367287161919393,2.3405334540065375,3.1002486839411163,2.725677271433399,2.08789738078545,1.2211829475579792,5.107705417804458,b
-0.5277560068486317,2.2703868943523005,1.0717401518791416,2.111340201007548,1.5124706536858235,0.6370588865500053,0.15727624295026202,4.760505724130221,b
-0.9972811179982971,1.1938946397450232,0.145684079939744,1.44685994055552,0.5406592514503868,-0.5636843112006305,-0.6975029557618514,4.485258611253462,b
-1.1211475415921073,0.28909828134777926,-0.5957706745749057,0.9737392961230931,-0.3216139806774801,-1.5703297785719907,-1.4416947395481696,4.141101249121931,b
-1.2287398423122462,-0.6541502052524464,-1.357963103353179,0.4937934938950635,-1.2436691217593936,-2.483840718431527,-2.1905099162404995,3.63208912271959,b
-1.432109535655052,-1.656440577669623,-2.162871570559535,-0.048110237173295455,-2.238573733418197,-3.3105041337921755,-2.925173390391367,3.0071909794820177,b
-1.5479988544301373,-2.4971236607211287,-2.822723087551109,-0.5139179176749497,-3.135560982661689,-3.9334921919753363,-3.4801962190036435,2.4231278048292206,b
-1.3454447461468804,-2.966071512868638,-3.131621725315296,-0.7119327591784602,-3.7350312315410603,-4.206755567057768,-3.670500327902302,2.0181679580576444,b
-0.7983778642189504,-3.079135160403653,-3.053944998840838,-0.5697107999608528,-3.9724349115842394,-4.074776639746588,-3.439769074100339,1.817874235342768,b
-0.0890102450891054,-3.0082281256531274,-2.7326538740564024,-0.1850652008920592,-3.942695030168199,-3.6158555897406828,-2.9087545021073984,1.7435449485248253,b
0.5465745695686104,-2.8934407442455443,-2.3608627130845514,0.25229870359791995,-3.8068795505140747,-2.984816233160981,-2.2986185763013327,1.6902340977361932,b
0.9430342498316143,-2.778887188777025,-2.055657415817893,0.5797073242594714,-3.68391397962392,-2.307110623364058,-1.7980350462137387,1.5941388022434952,b
1.0717774275631355,-2.6350292336314536,-1.8050551365505476,0.7451028793451349,-3.5856092246851157,-1.6021417081174865,-1.4673158612952564,1.4439987044362925,b
1.0548564612004367,-2.3568246236150676,-1.5028957293291796,0.8119419118653024,-3.4192205187586167,-0.7922143087447511,-1.2345988375992873,1.2490876364285153,b
1.053218120992637,-1.8172933730365721,-1.0689885986668521,0.8718751231663717,-3.0761060135191256,0.20534032460456828,-0.9745108589751258,1.0038941436277764,b
1.068421719053634,-1.0303783881717965,-0.5741780479257113,0.9261861342051191,-2.557134137313379,1.37542427026385,-0.6074912527603746,0.6799880739357016,b
0.895360678762503,-0.21882703069686021,-0.22690500436833375,0.8568846991514135,-2.008166635799866,2.5833058087975993,-0.1522726861183456,0.2463102481320094,b
0.34028579839122414,0.3800543051934022,-0.1951478228911088,0.5351142900498422,-1.6059731627927771,3.65710164191942,0.294284242859997,-0.30515154094885044,b
-0.5365256736558262,0.7601406160555138,-0.43817747605336577,-0.03804891013789402,-1.4030258387418693,4.50267467585861,0.6289030439564142,-0.9473642300457165,b
-1.4402411568411266,1.1298159814133604,-0.7241034623148298,-0.6988369547366222,-1.2840764958415705,5.1546486645399465,0.8257781653798795,-1.6131303657569773,b
-2.0653203677560255,1.6867959109242079,-0.7968999227230922,-1.212075175390531,-1.0537024831962694,5.731160514834209,0.9904871523008179,-2.183001927715214,b
-2.2620085051338914,2.4815266540079675,-0.5251231169504231,-1.3945166990481657,-0.5601712537963813,6.336375469655177,1.3375302397481599,-2.484233214660917,b
-2.0665719403253475,3.437030141803335,0.04751748989557725,-1.2001316852696076,0.21183039007411925,6.978370675775667,2.066396407520429,-2.3458979650499963,b
-1.6897226601637552,4.364153518908301,0.7197648520902798,-0.7520827848626925,1.0965545845048583,7.547834625908001,3.1855034234824666,-1.7181359838936339,b
-1.4545569463049852,4.96765305330727,1.2093410487125646,-0.3001687973532377,1.7893965151594142,7.869214239714777,4.4149668793441235,-0.7755853977732288,b
-1.6070389539145657,4.993896796370611,1.3005889297219966,-0.0883183747787357,2.0053373145618734,7.800438849947675,5.2891479323386985,0.11628982204825955,b
-2.1157051320467444,4.450711053648552,0.9859037516509396,-0.20042523161982406,1.6680715407671258,7.324577551046336,5.440057346233625,0.6075232149831695,b
-2.695139112091121,3.61860677276322,0.46970238646602935,-0.5106655575118733,0.9681566021977073,6.572377215880105,4.870469366323209,0.6131200573816804,b
-3.050266119553289,2.8082565140570135,0.020187278957482534,-0.7860492740418019,0.2315434014812673,5.755834899239627,3.9876087538085714,0.3928809501476721,b
-3.081974167343801,2.1514336565954975,-0.20171495196044614,-0.8558774816083856,-0.28974250242445343,5.052486069545445,3.3344612142881758,0.3609424580056105,b
-2.9031339713267026,1.6083204329542409,-0.2206976182869811,-0.7263163985657343,-0.5517078687397075,4.511578128267163,3.204349889034315,0.7557041815802639,b
-2.758562722946963,1.059652102963169,-0.2182749879150271,-0.5790504461422603,-0.709108413872438,4.040784426533669,3.438309500041445,1.4393909448178968,b
-2.929349703134313,0.36360364238254644,-0.4156786100942618,-0.6550031582923099,-0.9763455360304911,3.4892212445352926,3.5735488748298225,2.0042259255833463,b
-3.576045107099746,-0.5381169229861426,-0.8976357448329406,-1.0748288256024126,-1.4291979162729676,2.78351378470443,3.2342602359112105,2.1106998122551444,b
-4.575463044613716,-1.4659022771637722,-1.4892140056289604,-1.7141868185964444,-1.8854936114422958,2.023105586908332,2.457159840069425,1.7853381420971535,b
-5.560733685936523,-2.030993196230206,-1.8325101020783605,-2.257442059806853,-1.9945378365107707,1.449718486964082,1.689569259974861,1.4292480416144555,b
-6.205022494354083,-1.9318589354922853,-1.6458672717105938,-2.417464946314083,-1.495731474102836,1.2966526645379797,1.4588571865094058,1.5207609270668652,b
-6.6030376350511775,-0.21611822978042303,-0.013782464701035968,-1.645879369395384,0.9010111045875343,2.2845788670047336,2.9736192402906365,3.34854576451954,b
-6.898170288718231,0.7047768399551176,0.7608709797313195,-1.2367453789087186,2.0983501789586696,2.9840310345605956,3.900309123715547,4.310326106118507,b
-7.569146037724073,1.311303987689535,1.1249883318912415,-1.130240594025533,2.909927717662847,3.4822094128821206,4.289817588247015,4.714278546219118,b
-7.569146037724073,1.311303987689535,1.1249883318912413,-1.130240594025533,2.909927717662847,3.4822094128821206,4.289817588247015,4.714278546219117,b
-8.643660007349279,1.5252422641130066,1.0471512183423486,-1.3230690149456357,3.305905168033534,3.7176152436182774,4.061901179974451,4.517345161072419,b
-9.914009317319858,1.4614642770131812,0.7180340097415538,-1.6067380336362667,3.460285297488565,3.8435855790192024,3.547238559562922,4.047640790987985,b
-11.00068722659999,1.4080123303005836,0.435847453495205,-1.7012021306706857,3.6315843491936106,4.128893724954125,3.2422606918700962,3.7528853085413068,b
-11.590399218174577,1.625185904036686,0.4192814904051758,-1.4383640846584635,3.9933706421161665,4.777452788708082,3.4701316834445706,3.8975791565392193,b
-11.660259355998516,2.114910966785749,0.6756199338549006,-0.8686545471855155,4.521057893534628,5.7786594146298516,4.177301721501687,4.419160759958242,b
-11.449938985325934,2.6356563870572502,1.030975594565136,-0.2086433258404578,5.022310192411892,6.888587979922479,4.988822694401957,5.0154217476056875,b
-11.236085938967557,2.929510269554961,1.2725168909715534,0.31303564736796785,5.272464062824908,7.756068054117412,5.463091532467329,5.367138295971022,b
-11.165707305318685,2.8750294267008494,1.2650804701585847,0.5753045890908296,5.137345080393651,8.112845394547449,5.365323737692853,5.328832868830232,b
-11.244918684294468,2.471171970216955,0.9870096530854159,0.579820798405883,4.621091024358639,7.90753836676881,4.787244669979524,4.974964066718212,b
-11.384402542099924,1.8037033538577447,0.5174748413531706,0.3935012469755662,3.8490100453713056,7.2951116709958,4.046328074046213,4.500117885610953,b
-11.464310924475773,1.032826530765473,-0.017451506927875893,0.07218409127884058,2.9926133202409626,6.484823975323259,3.4369452047890987,4.060281713353421,b
-11.456857542512607,0.28417981530228326,-0.5440793250551372,-0.3972990588523114,2.1534804306944926,5.559854570426373,3.0121921567078003,3.6694389765344817,b
-11.506736274387018,-0.49265963556564596,-1.1033708000350206,-1.0891570779964543,1.2982651696631917,4.424121632982559,2.5697477403207296,3.2242471886932313,b
-11.803362295722952,-1.454030449938482,-1.7746515626464645,-2.038124621659108,0.3402719880498675,2.9353023351706433,1.8634405390581867,2.636559203256857,b
-12.334814510993695,-2.597133341721063,-2.5203149094062423,-3.120668708295276,-0.6932471203803874,1.1074852718102046,0.865374065990081,1.96502296212868,b
-12.834965540157043,-3.6552742657844695,-3.1434959442353025,-4.056234972252957,-1.5986178851819388,-0.8139880142159154,-0.1543375441325133,1.427845570747231,b
-13.01662305338414,-4.324969575902712,-3.429697340843211,-4.565259720825518,-2.1256616552118275,-2.4891626585753084,-0.8091310589797229,1.2718941150261958,b
-12.813809968706213,-4.5360684768067605,-3.318833135700868,-4.549770834122518,-2.1687272039336873,-3.7142726267939663,-0.8889558211577733,1.5962270715362363,b
-12.38127943234408,-4.453263897329871,-2.9346051649493328,-4.136620203004542,-1.8353468181622816,-4.544328190670061,-0.5209553315995574,2.270679788160142,b
-11.929976762656093,-4.293777833994474,-2.4770948331243217,-3.565879162570255,-1.3577120706633723,-5.209579980875352,-0.06895478943340132,3.013530418867544,b
-11.595918344075976,-4.204335705497585,-2.0965624605673883,-3.033271293152937,-0.9442944515704415,-5.905911437078934,0.14448121278524087,3.566355070613924,b
-11.383274049799518,-4.2222619427079975,-1.8246921319508875,-2.5943593559410765,-0.6712750251736075,-6.632515927372292,0.07190934143613079,3.8339117428982803,b
-11.163258997590026,-4.251342339238791,-1.588469552459224,-2.177392335011414,-0.47178361395120094,-7.202092893395587,-0.05388148785902529,3.890414138690563,b
-10.79082126041979,-4.134404752252199,-1.3163773086274584,-1.6970012854753649,-0.2411353180635866,-7.410149006200546,0.054180826826048634,3.858778575804466,b
-10.31062083162725,-3.863365690339132,-1.0715759784594723,-1.1920382140192107,0.012456775129126773,-7.221651427566075,0.46824936707082754,3.7683097388032207,b
-10.016040752998249,-3.6897285690432247,-1.0645364082054958,-0.8593757081606797,0.12294064855107067,-6.814853211477725,0.9616854536207265,3.514029144633251,b
-10.216427099372972,-3.920166599712721,-1.487457853813398,-0.9239451757007853,-0.09993685025784953,-6.442067654850321,1.1844834422279633,2.9568140428032343,b
-10.937514959898326,-4.601293273222974,-2.3237734528165452,-1.4493530917653152,-0.6836207976317984,-6.229062456492505,0.9484999312260907,2.0799754589021275,b
-11.885581186116863,-5.473925258269571,-3.3319423039695173,-2.2642725940609307,-1.44532618603932,-6.086549131916081,0.37974273935677294,1.0616701151589891,b
-12.674952679525074,-6.209712305856321,-4.205614098046326,-3.0636731455345014,-2.1184411267796657,-5.800273555614465,-0.18362514987424527,0.19035869705466796,b
-13.049753646702134,-6.61295556418726,-4.742360181354047,-3.58633788408589,-2.5147993335199734,-5.210839795197238,-0.4468847076913719,-0.3125476392628937,b
-12.9581222516458,-6.643759645158818,-4.906726764402093,-3.7397095838551815,-2.5975924858334927,-4.33482278563229,-0.34729073673407873,-0.4165332462112422,b
-12.539443741312715,-6.396708103891472,-4.804541377787609,-3.615521544923035,-2.4559129776486963,-3.3468889901854197,-0.035948450553264254,-0.2564699001240366,b
-12.047690781067558,-6.08569819078851,-4.609066219411585,-3.40501629959113,-2.225598645981922,-2.4569039058445843,0.29455850834523967,0.0020713268387287016,b
-11.678982928000377,-5.923983624737959,-4.458856952305147,-3.2652064292029648,-1.9986172181719977,-1.7838264855892683,0.5639934971128591,0.27662388769496404,b
-11.420407057156488,-5.947623019593073,-4.386700521048462,-3.2271267565478623,-1.7773370013473824,-1.314339471146822,0.8167674003124732,0.5715117456600016,b
-11.111517816268877,-6.014022779534007,-4.347900666447055,-3.217807274199191,-1.515557999093959,-0.9596307012601185,1.1213277634149592,0.9022777964856286,b
-10.665948167473882,-5.996109506836738,-4.309634424256352,-3.161755961342336,-1.1997154451877536,-0.646616180611835,1.4834818889428285,1.241181686800811,b
-10.175903983523607,-5.899355610948666,-4.285293712769618,-3.0489394617538754,-0.8721069281199565,-0.36451344134198616,1.857953621936844,1.5382007479366793,b
-9.794893871195232,-5.771014956422989,-4.289298972032205,-2.9136692042599286,-0.5826659343561896,-0.14613608737873113,2.2185669698195882,1.775349506475894,b
-9.596908273748062,-5.609111484883529,-4.309106120680411,-2.7814010807973344,-0.35778274602876453,-0.02991805642473886,2.5811241560070934,1.975604491572108,b
-9.57567628702541,-5.427879069837598,-4.344187198528305,-2.654355640926524,-0.23170325694395827,-0.05066952053619813,2.935639919499912,2.1447189889597045,b
-9.918610051955826,-5.362582880034443,-4.636136865930426,-2.4271290760432613,-0.5468765205843352,-0.7000078969356744,3.0505564382877157,2.009279453842405,b
-10.178106337090606,-5.5123518525976865,-4.944489662666291,-2.369165075490438,-1.0519250562767297,-1.4232591532767005,2.429133408496297,1.4291257004095803,b
-10.48600186087057,-5.660688722484829,-5.3184380309249075,-2.392747836534626,-1.7086843798639957,-2.3889869865427937,1.3335531711557187,0.48808421719361206,b
-10.486001860870571,-5.66068872248483,-5.3184380309249075,-2.392747836534626,-1.7086843798639957,-2.3889869865427933,1.3335531711557185,0.488084217193612,b
-10.906798841221214,-5.734438471638315,-5.688503173860431,-2.5032584557646422,-2.3860376011819606,-3.464456323648818,0.039173884759305055,-0.6081965326917878,b
-11.44003443979665,-5.679520923609062,-5.969125668746446,-2.6408095556261104,-2.9394290253993884,-4.453857337181121,-1.081196433629704,-1.5743541243097787,b
-11.960697071122663,-5.427275911181076,-6.09369467398752,-2.707111141181734,-3.268210309712381,-5.190085325187445,-1.7924080221046967,-2.226775491642464,b
-12.348790578156885,-4.988234944713638,-6.085650793208645,-2.6626829469311266,-3.3833853034527843,-5.623029008140188,-2.144968180133087,-2.6004015198488406,b
-12.634320954356362,-4.533531522055742,-6.074352854304296,-2.593992339558017,-3.408909294022346,-5.825344642625632,-2.4098614811387735,-2.8982191351013804,b
-12.938684426455392,-4.262223931710307,-6.193296898519806,-2.6574171482141855,-3.4757894651994308,-5.904741535195745,-2.844728999799703,-3.3102034732568475,b
-13.296413728803367,-4.189505562125427,-6.456308299656023,-2.943778673657932,-3.602862061011342,-5.904807914010948,-3.4782793825579956,-3.8488569338233987,b
-13.596021027245627,-4.1501422319414365,-6.747067486991239,-3.3920871020214483,-3.689219688882693,-5.78450508258047,-4.079627709972078,-4.327312451359023,b
-13.66599648929756,-3.9946778252176594,-6.910727459187642,-3.8164359109594415,-3.611009662023277,-5.481419223626066,-4.321821845590304,-4.4865339758955205,b
-13.355207078983279,-3.695648495227232,-6.836562550234478,-4.010356088239676,-3.3142505833742852,-4.989882049765627,-4.008423764276359,-4.1759703165684465,b
-12.576956417514575,-3.2908007197322853,-6.494887573218273,-3.8683448488068786,-2.8483214406952233,-4.3923876010281875,-3.2145234553169524,-3.4726701012916528,b
-11.386650298407634,-2.848003847823555,-5.962378316879898,-3.467492095342861,-2.358502902442901,-3.832189130320978,-2.267029410544847,-2.6675161759267425,b
-10.016853627612486,-2.4947220328071156,-5.409731128463415,-3.0374356524896085,-2.0321273123378267,-3.4463779282006697,-1.5753895282471986,-2.1163273144090686,b
-8.724482230393287,-2.3497974694928487,-4.993411335965665,-2.7928948227909145,-1.9790022173674515,-3.292356825043784,-1.398091514450919,-2.030774137702518,b
-7.551328094438629,-2.36749381125245,-4.71467865878451,-2.7396432628050698,-2.119447932074884,-3.3124624319826914,-1.6838241899216786,-2.3383222292657377,b
-6.286130253866435,-2.337112614636454,-4.403118112657169,-2.636577705640036,-2.211711913554052,-3.3691891621636634,-2.1068621388707003,-2.7174104589348236,b
-4.684574358247048,-2.092058678633521,-3.8617959104485076,-2.170536246601942,-2.0288094690695906,-3.3327412733568416,-2.2926542744018277,-2.801410724160822,b
-2.6806344300073675,-1.6554771735217784,-3.0280662841753783,-1.1983512950885247,-1.52801256500292,-3.1583470767475426,-2.0819046719753183,-2.418445412866531,b
-0.390206606468732,-1.1530806859018587,-2.009888665622345,0.14166823818481858,-0.8691841552593113,-2.9025477736262015,-1.6416673028266693,-1.6984322209278386,b
2.0012484936686086,-0.6753027917441285,-1.0049083896147342,1.5211532700060306,-0.2949029713625929,-2.6767802950104036,-1.3386382615736214,-0.9671809327952271,b
4.330562467294897,-0.2703015286479851,-0.1780889730884791,2.641867296757936,0.024745794766478556,-2.569872901610125,-1.4577963555446902,-0.4976303209167471,b
6.544796284536632,0.039331621087329405,0.4525588183151232,3.442061025232012,0.10353354373741239,-2.5788349173856586,-1.9641244053920623,-0.29686612958704645,b
8.779871899980508,0.33315270445803347,1.0608070206060707,4.146418746911932,0.15136038552356673,-2.5903356700628004,-2.4925719474319514,-0.0938563008237304,b
11.292626943139217,0.8165420386547828,1.9121801444449027,5.098137644129557,0.44982011723665166,-2.4413319872211527,-2.5984128436729,0.45092859364281185,b
11.699055715199288,1.6585807060869502,3.1588558180988278,6.481503208915038,1.1511545877260794,-2.032005883383939,-2.090496664767894,1.471752165651023,b
11.988361145286913,2.8295573444941877,4.715613083077091,8.1678350654599,2.168445451904119,-1.404775673716079,-1.1771332773253502,2.7804177391311007,b
11.976369585443331,4.168375902735376,6.344996916559472,9.826011838125748,3.2647813581347505,-0.7155105882062729,-0.29303232707706905,4.002831200209127,b
11.55564881443643,5.566896216525873,7.854232085278231,11.191739318060637,4.251088220111815,-0.11348746217247958,0.2542512657850155,4.857014161430618,b
10.734284689819653,7.00790331107102,9.207025953906047,12.252778691585196,5.107233784085507,0.3711025014534467,0.5219846087027851,5.347798507390535,b
9.590427064679018,8.466316535596224,10.481292761711455,13.21068161810172,5.944943154732114,0.8363321739297247,0.8536230007560777,5.725864255984107,b
8.217971420719959,9.869493708877256,11.747617169866587,14.275994480161799,6.869956533888318,1.3991312383913839,1.5459093815897849,6.245440483862422,b
6.673070644486705,11.123464473845178,12.955665747507927,15.457808139932094,7.84034086913847,2.047079280224341,2.53632236390578,6.911474574204595,b
4.917902001632504,12.077339670507396,13.891460920642027,16.496755762650928,8.610447991293402,2.5761243652867294,3.3793212611481094,7.422113743616632,b
2.8268108632528435,12.4958353602692,14.26854262200269,17.00772529645041,8.834475383085069,2.690566095364292,3.550817589071643,7.368946277771944,b
2.818746853543302,12.213208551356795,13.936959460855103,16.755250526355844,8.304458606721989,2.213352118377977,2.8458357713258797,6.553473735294652,b
5.061435641478209,11.354214402284443,13.041077405740008,15.850879032895502,7.139952185101384,1.243609169404515,1.5480153994796737,5.173546278373706,b
7.315974063631129,10.301661736915186,11.94860652140425,14.690862874614703,5.734213326163049,0.11817893029184327,0.23163993366463037,3.721354934749833,b
7.280916359814826,9.389759213644398,10.991854312734905,13.671763296885876,4.478012764297023,-0.8106054335615103,-0.6482526360389868,2.653556671256407,b
7.255389138482151,8.674378310291576,10.255912074298607,12.921742126776271,3.5010959282632923,-1.410396528418421,-1.0586222165471812,2.0760952335004554,b
7.23560377243133,7.997331923355668,9.580310783545302,12.256919906068475,2.642027404554211,-1.8314490563746468,-1.3556735992541216,1.6880459659256626,b
7.208360441675109,7.177407103517285,8.728769076609712,11.367823910747795,1.6386738869113948,-2.351862111165176,-1.9553426928984572,1.0371591917649519,b
9.140608378460119,6.123900528685636,7.58128307259611,10.077285047844985,0.37065292652533177,-3.134374766402835,-2.9793736150137935,-0.1071027434543371,b
11.38238603546513,3.7217813901153805,4.979135453087354,6.956492165080327,-2.187401677464164,-4.921129033945346,-5.055266107679207,-2.8458271940901265,b
12.132862325848285,2.8905442355126953,4.062846285882671,5.812509741381475,-2.857505169739938,-5.376856656640748,-5.394544426051968,-3.5728590562918954,b
10.696358863169058,2.4740369736622947,3.51969226301494,5.157334970882189,-3.0208418297663386,-5.40835357874353,-5.257138737046506,-3.70365779086883,b
10.696358863169058,2.4740369736622947,3.5196922630149396,5.157334970882189,-3.020841829766339,-5.40835357874353,-5.257138737046508,-3.70365779086883,b
9.389986878184711,2.225933208493404,3.110345999087784,4.766418495402282,-2.9720089894883577,-5.226842732597784,-5.00014880266738,-3.5814510439661746,b
10.434264763313813,1.7998814434612171,2.516529309134839,4.268037309751127,-3.0864692277105523,-5.151283021016984,-5.006081183541557,-3.6695909156768316,b
11.387660869955019,1.0506503190136725,1.581661923417079,3.4167506647089487,-3.551438319204157,-5.387722448354164,-5.443614120839681,-4.221377747309406,b
12.12140665951582,0.09174284332584008,0.3968996347290995,2.2501374935587357,-4.266981044718394,-5.895399698949727,-6.186712151567403,-5.118713371446898,b
12.568526058455681,-0.8479177072482852,-0.784131494983306,1.0429910179514739,-4.950881390165793,-6.424011273624751,-6.9162241787281875,-5.979219608028869,b
10.797979720757631,-1.5285746884853157,-1.6819357621553421,0.13505023665665683,-5.317550080173092,-6.677765304984616,-7.311207826825114,-6.424895900837951,b
9.550954001150696,-1.7450720814375391,-2.101367630542543,-0.24775602153597368,-5.211969846092112,-6.4851149514138395,-7.200797955814194,-6.302162824864233,b
8.925268127885815,-1.4338663181947322,-2.0039127697066594,-0.09635994883393859,-4.661794953256491,-5.872778384001151,-6.605527394873187,-5.718052403158856,b
8.797813381972777,-0.7634160612347312,-1.5145661296375799,0.39650515624795324,-3.843364512638799,-5.020822435436598,-5.685052457102508,-4.919950307887939,b
8.89595407308585,-0.03272990759720775,-0.8449226723403468,0.9562422284609384,-2.9805686602263455,-4.150702982392375,-4.652928111516206,-4.144351123823034,b
8.950336451930843,0.533217520612589,-0.19783774732997697,1.3626486398087272,-2.24857013145243,-3.428327906683105,-3.7060284026060457,-3.53413058324758,b
8.760830139251448,0.8374639441162428,0.2664502778439025,1.507582282432183,-1.7496591920569382,-2.933081336887132,-2.9812910306876965,-3.135650346365441,b
8.19223962603439,0.8188268901367965,0.43082360604886,1.3737347540598297,-1.5326128192747894,-2.6767848731960324,-2.5288006287104228,-2.927625476422556,b
7.231566046207838,0.44850289402035337,0.26475683630327745,1.0061761866433294,-1.5799864060277429,-2.6206611964272506,-2.294414601895908,-2.8405923830886612,b
6.056267566858819,-0.16056111028375902,-0.12260518381397825,0.5034154598599676,-1.7749534497555945,-2.67185298130454,-2.1299940061818434,-2.7695858794955854,b
4.936671136312973,-0.766363410927242,-0.5295279684183828,-0.011912460999418516,-1.935212208747976,-2.6944311858926984,-1.8570241587352776,-2.605524121750757,b
4.012810816224293,-1.1894670898475275,-0.8057246201471402,-0.453446668863794,-1.9258978695049769,-2.5672387526514653,-1.3717312138040285,-2.2877379655312646,b
3.2025146460463723,-1.439560304779284,-0.953906420852913,-0.8100573394125661,-1.7491770760870122,-2.2638341076060806,-0.7273895122123404,-1.8448540970142986,b
2.332889113968519,-1.6389732365672038,-1.0993218163783247,-1.1291072409721388,-1.5302292533999635,-1.8877483504348607,-0.12280963926570607,-1.3884893429866811,b
1.3075666787023674,-1.903698739830626,-1.3798794039094375,-1.4703648482757186,-1.426469077494873,-1.6148428731517832,0.21776418946283355,-1.053637373876565,b
0.16078705807648602,-2.3090308430642614,-1.8403832512084386,-1.8582562852923714,-1.5229215549699378,-1.5605694994649075,0.2079757182696694,-0.9129836846025994,b
-0.9443549461460613,-2.8422432062640395,-2.366341107124527,-2.2348812849683433,-1.7537711181178453,-1.6609413488902054,-0.009559069455534242,-0.9160981856134731,b
-1.7360654432564595,-3.3154200592419345,-2.70269893350022,-2.447272697547371,-1.9055930608954195,-1.6767964610526835,-0.13606981665344442,-0.9084909331691016,b
-1.967865240842475,-3.435106953185106,-2.6080683623852075,-2.3301350190335435,-1.7562835276733069,-1.3560261984133848,0.06579335735433603,-0.7447108703274183,b
-1.646393464938687,-3.0851301615434044,-2.070992843073448,-1.8629540460837444,-1.283732695840889,-0.6496884046903998,0.5629738359430148,-0.42862242830511343,b
-1.1112957021219678,-2.5152622605368276,-1.3889513064291283,-1.263271697883639,-0.7539078708111366,0.1982234552362149,1.0330508152428641,-0.1646932226646293,b
-0.8304686011496847,-2.1745286159015147,-1.0066512876186273,-0.9044178335166727,-0.5757304007924555,0.7824573652376554,1.075672655354355,-0.25704130228583333,b
-1.1120964465590417,-2.3753117062000717,-1.2476847717231012,-1.1092297058708998,-1.0360533453764704,0.8010245406352634,0.49692717640110534,-0.9160332969790769,b
-1.9952850018732815,-3.1392450909245557,-2.1524151829222573,-1.9743504349135386,-2.128606397395712,0.2546067041433355,-0.5543379100353256,-2.1110261930421257,b
-3.3098089590478788,-4.262361878486581,-3.491995396258229,-3.3270164647572655,-3.5722403553848388,-0.5577785587095276,-1.6901315782331268,-3.5721442857282133,b
-4.759327073060123,-5.417017518832421,-4.895655478246015,-4.816298717056472,-4.964251040811353,-1.2291073821453187,-2.528708795537385,-4.934271663624364,b
-6.02658497078658,-6.264425186925843,-6.027475841106776,-6.0907966475483475,-5.9773406728616525,-1.4843580764445385,-2.8981983531206037,-5.923862862846896,b
-6.94672981870734,-6.644861699087349,-6.7530231154458304,-6.980087234132829,-6.514815729448037,-1.319766025161154,-2.876758815084524,-6.47117178428617,b
-7.61476330842496,-6.705170103842695,-7.189848079704935,-7.564364875113247,-6.731220467804749,-0.9660648010771442,-2.6790891890702375,-6.688902157067256,b
-8.265320093275703,-6.7592944713061796,-7.581028831141998,-8.070741987720972,-6.8888833979205515,-0.7158396443075741,-2.497696309820814,-6.752154710751863,b
-9.03631324092011,-7.002012365689029,-8.096334627850059,-8.679998445360898,-7.1629068441017,-0.7415868789629548,-2.411842017961967,-6.7767758437562176,b
-9.88027043782319,-7.404959022118236,-8.736514420742282,-9.404614439020143,-7.555381698761815,-1.022247135658049,-2.3973793784176913,-6.775189276895363,b
-10.663536467525518,-7.846848929544585,-9.383111167436805,-10.110128869715147,-7.951819063476829,-1.4004459297456606,-2.38689378464131,-6.694182194662008,b
-11.270711863650174,-8.227066918418487,-9.897167195018309,-10.622192768343474,-8.223026320985895,-1.7045748216775813,-2.32050582630304,-6.483992666553848,b
-11.639838147072735,-8.461271120278946,-10.197055567517321,-10.837582381019304,-8.298793560831538,-1.8569600376487725,-2.176790128208785,-6.150539401530642,b
-11.809902942342685,-8.512100480721868,-10.313769087279649,-10.794227470129407,-8.212102776951093,-1.919660816348585,-1.9953057760966402,-5.769049785223274,b
-12.246931631784431,-8.540989550645374,-10.551855721546733,-10.596097132821956,-8.085251937260914,-2.4029831655859923,-1.9116640483235225,-5.277815625759885,b
-12.658577548194476,-8.742338766188483,-10.77509069413574,-10.628204851511075,-8.189199729379759,-2.97061011249819,-2.1247736610988155,-5.223105563012362,b
-12.894056125492927,-8.886700272646312,-10.832823435373829,-10.579137318815011,-8.242107976117182,-3.588473395667058,-2.400566725023704,-5.148679317219213,b
-12.894056125492929,-8.886700272646312,-10.832823435373829,-10.579137318815011,-8.24210797611718,-3.5884733956670574,-2.400566725023704,-5.148679317219213,b
-12.629562220174957,-8.716886526507125,-10.463980612799302,-10.214735034279911,-8.018184063366734,-4.009611412394651,-2.5513484045413883,-4.873003926049034,b
-11.765691497481619,-8.132379093483861,-9.56216836869338,-9.42965405539196,-7.386829854071701,-4.056045096646942,-2.433242398847061,-4.289403153719473,b
-10.470646455029998,-7.203331234481115,-8.237883371500047,-8.331474123522419,-6.379432402703213,-3.7083121353750834,-2.0357345701003204,-3.4402135461235352,b
-9.057446470796707,-6.068290981336252,-6.740991227861434,-7.172077952109122,-5.143774129640777,-3.0746652965316423,-1.4595089595735757,-2.478608413430435,b
-7.840792733350978,-4.890780622135817,-5.327198595604867,-6.195089354339329,-3.844694870455193,-2.2715716837854085,-0.792970909432065,-1.536599649920362,b
-7.002160242500156,-3.8274499979044494,-4.136073586234543,-5.500934746771072,-2.5687048693419134,-1.3148268818018112,0.0023337479293353614,-0.6091288201214763,b
-6.493519994340981,-2.929066105676059,-3.1418747479859372,-5.0140608565197615,-1.288634342995493,-0.11511012236286869,1.0781494221257109,0.43258396522315623,b
-6.11043256426926,-2.1127626097081027,-2.234115338343311,-4.583194320659715,0.06452269602135133,1.4130260124636824,2.5514223986869515,1.6959099154304471,b
-5.736607309016821,-1.319922684149584,-1.3781806014785218,-4.139206366797177,1.4681272923892028,3.223380833246085,4.353549958561332,3.118375374070875,b
-5.495228803392889,-0.6611246318680555,-0.6864099770750887,-3.759827973588105,2.7579354802405693,5.109742481050016,4.679769563476907,4.46151903090737,b
