Fz,C3,Cz,C4,Pz,Po7,Oz,Po8,Inst
16.350064511030368,14.505348930597298,9.923125601355782,11.664599812457297,10.491374457920134,5.888416865689161,7.423528140545153,12.51609817778214,g
16.350064511030368,14.505348930597298,9.923125601355782,11.664599812457297,10.491374457920134,5.888416865689161,7.423528140545153,12.51609817778214,g
16.350064511030368,14.505348930597298,9.923125601355782,11.664599812457297,10.491374457920134,5.888416865689161,7.423528140545153,12.51609817778214,g
16.350064511030368,14.505348930597298,9.923125601355782,11.664599812457293,10.491374457920134,5.888416865689162,7.423528140545153,12.51609817778214,g
16.350064511030368,14.505348930597298,9.923125601355782,11.664599812457297,10.491374457920134,5.888416865689162,7.423528140545153,12.51609817778214,g
16.350064511030368,14.505348930597298,9.923125601355782,11.664599812457295,10.491374457920134,5.888416865689161,7.423528140545152,12.516098177782142,g
17.990128638807157,16.154760419557554,10.999935984139766,12.653481436841904,11.313340008326154,6.339216077503222,7.6239038893206175,13.290687562196592,g
18.423410339408385,16.54606545230901,11.42882784106351,12.976316112684056,11.677569623939387,6.619266135603162,7.662840068143545,13.614318460406277,g
18.240459601750633,16.213852306407667,11.554058444569456,12.970282221823334,11.826508098115287,6.7901999374442426,7.430984020916737,13.564367081680444,g
18.218644286527812,15.902620974847846,11.807547353056327,13.006191670522426,12.062633037171677,6.91682877879347,6.833602434339943,13.229742661979822,g
18.775895222681708,16.048296362706303,12.381127355717599,13.22347091565933,12.518473171886113,6.99371323970621,5.821735823172839,12.663620731947379,g
19.723327761449376,16.49696530901587,13.08888006319996,13.449555432982597,13.0479794432563,6.907931731765423,4.390021003728224,11.861248616840543,g
20.519217774560566,16.72867840069653,13.54054769335895,13.38055141609259,13.338882975208227,6.478194487252064,2.5477592336716683,10.788728569492744,g
20.7581365805465,16.367155412900182,13.467266154823008,12.858158718070166,13.152880233936742,5.566438031290832,0.30718215878861643,9.455568192201797,g
20.432290165842517,17.653058806066092,12.912224354454974,11.989602843220919,12.491027195561317,4.207031880646433,-2.26842632715237,7.986923198957359,g
19.81846328899399,18.704965647887825,12.160708848091023,11.036709612210547,11.570724972903488,2.6571853927562317,-4.988583654153805,6.626569032214425,g
19.226038275477045,17.720147000290456,11.521418422529901,10.219951431833753,10.666448572723677,1.29415147657486,-7.532328695367049,5.631554228109194,g
18.829452098801315,17.058810302201984,11.133032513939852,9.598087567652062,9.937917602058707,0.39883461243872065,-9.57247608430847,5.115940021190197,g
18.5978550305037,16.718626474713254,10.894039524295849,9.064017125629194,9.344541044606247,-0.016081965903310725,-10.948919545855906,4.976249675249842,g
18.317307011874295,16.496280681133396,10.551276113996128,8.437043215687456,8.701279187299736,-0.18779818697159173,-11.744453498773183,4.979909726786559,g
17.765941351920688,16.12821416602916,9.918031014405555,7.6208902190368,7.860071549300903,-0.40096753742263463,-12.192761205213348,4.952784346513906,g
16.956267600519325,15.555555300934078,9.072706984149269,6.732959010844619,6.8900373122252745,-0.7547265966021628,-12.484793887332172,4.915221549047356,g
16.18582229444178,15.024938255356327,8.34814562133175,6.0735364865053665,6.091385819264813,-1.0695980229391673,-12.61484772055509,5.068530278254791,g
15.805558389330955,14.863624852616343,8.094263931727848,5.928563150031419,5.809878250722258,-1.0014592722287265,-12.383190073515069,5.651297499555168,g
15.951338328561476,15.184173400293645,8.42270529597773,6.374512096866658,6.2036163387112575,-0.29209712775866625,-11.570478974249943,6.763333684794359,g
16.49712587586355,15.836807810696836,9.145841043568957,7.245066650370054,7.144359098437979,1.0118626767492152,-10.166141308453692,8.26818767128363,g
17.190039444477843,16.56251805586446,9.917946374067917,8.244435035279604,8.298805991287603,2.5355921999609117,-8.46378031966804,9.841682178515095,g
17.784630840435533,17.113359807683974,10.43693851175919,9.089329940905587,9.305425215111818,3.7784346811513188,-6.926678514112962,11.138173910394276,g
18.127381550019045,17.30988286911903,10.583344213785814,9.60895946191058,9.93797635882093,4.3934683278965565,-5.9252193259391035,11.953444468487218,g
18.21310099589263,17.121213947058386,10.436970926927449,9.781665895012718,10.173170410003427,4.335055898262795,-5.560824123551199,12.268638741323937,g
18.143178369618447,16.677200281907044,10.155050808230662,9.678819600015306,10.120257415317116,3.785476542714497,-5.700469811433979,12.169114147269173,g
17.9583198405838,16.09493272027358,9.787345656276583,9.335280261818292,9.860658578029556,2.953031581351258,-6.15548688993935,11.729689607127673,g
17.5324624458576,15.299600183315397,9.202698354347797,8.673460563116071,9.343846763153547,1.9155756379318452,-6.833739278262986,10.957599920004906,g
16.711218689702143,14.122196115898827,8.230792634214762,7.590388270728229,8.45407366572465,0.6244225266991776,-7.742472695698821,9.824387378700163,g
15.556610716901563,12.584400020819935,6.891278023780306,6.130769717309069,7.187536429817795,-0.9489229020514671,-8.856585199643554,8.36174767178122,g
14.385043645005783,10.987947107566765,5.4667364215484895,4.5501478737522785,5.7531253555494395,-2.658333084796029,-9.991714362261487,6.748988332375556,g
13.54144627379566,9.69046652711038,4.335746430767107,3.1888889349338543,4.483908623173235,-4.177038009886188,-10.835511392039889,5.296131128823364,g
13.159503801432646,8.851988915999767,3.717542216184293,2.2699075483038635,3.6274162290926513,-5.178240399826179,-11.151411760743125,4.288715663272087,g
13.106655852428409,8.38806873902433,3.5314556820167993,1.7749520069909566,3.1793437588468025,-5.560423185528425,-10.979802542572136,3.797895260448107,g
13.087703663341923,8.068339712337785,3.4593894606738482,1.4694584425991741,2.886557774879961,-5.508305408139401,-10.623925500819613,3.6299463221283816,g
12.82824285414635,7.659234675456983,3.1753091875862554,1.0698562862072865,2.4376955531610145,-5.3168327870550955,-10.396358980031447,3.484556060335283,g
12.286079393513761,7.115926168020325,2.608301261920798,0.47562356321016946,1.728954547555439,-5.123959422187984,-10.338747971679817,3.2021261157345293,g
11.739734908145369,6.710581623358179,2.035121584440636,-0.10669422996098452,0.9946426174289835,-4.7870272550258735,-10.169677358636774,2.8967341122714063,g
11.581278808512952,6.859477348339206,1.8738251551513467,-0.3016266274208675,0.6508632302680162,-4.0180816701241895,-9.522601993347498,2.8628804653298205,g
11.931170615139681,7.702890092012292,2.315069129955639,0.11028745541332459,0.9471723578493897,-2.674348210386988,-8.287175882148457,3.3202273806302918,g
12.47382711929384,8.889619126758282,3.1292275036675194,0.978540364714758,1.7347822626775415,-0.959318259885848,-6.768364252357051,4.1921695780559425,g
12.718565116361322,9.854234695611517,3.8458416456220696,1.8921417330035992,2.577897382232325,0.6557416617394816,-5.506322750900275,5.110849770778203,g
11.736696752984198,10.327055365729361,4.0716055090876955,2.77029852637902,3.331335623958945,2.2671682632241383,-4.77566602702983,5.779027064786999,g
11.09875358243385,10.338180833994231,4.018566465418778,2.9485819873910493,3.568339378352878,2.5077623548353656,-4.722844727747945,5.687968344254401,g
10.881759161818689,10.634751400742406,4.3580810884053705,3.371474405064886,4.203665581742407,2.8625194769009235,-4.2318293017415485,5.834317599036176,g
10.881759161818689,10.634751400742406,4.3580810884053705,3.371474405064886,4.203665581742407,2.8625194769009235,-4.2318293017415485,5.834317599036177,g
11.173754989798482,11.255633000798536,5.166750152758057,4.186850313742327,5.32769021682478,3.4498369595875973,-3.2239170431979502,6.440832750438192,g
11.695889229375842,11.896879567006435,6.126610636184454,5.215966697233641,6.6070851141203,3.999303572165328,-2.096748120489577,7.318148300315352,g
11.985082548074178,12.067509012427944,6.725336094650331,6.045693882380977,7.46492438234708,4.045779084976574,-1.434012417960559,7.97683928187593,g
11.756190482151696,11.45685951679321,6.616894214324925,6.304336487832711,7.452828986514218,3.2672197233644873,-1.6025471789223265,7.955749537502929,g
11.128785391599322,10.205438403307179,5.854801892533926,5.901867779899993,6.530695804709619,1.7119324463227437,-2.5326198126282575,7.120438017497894,g
10.488717823155167,8.7770920468823,4.813987972725607,5.046911389575699,5.049598190878647,-0.22685302784657244,-3.800820609413415,5.733780598662439,g
10.159419597879907,7.586827995387227,3.915378737418427,4.082120828281715,3.501624950458614,-2.040142852611562,-4.91438686613724,4.274915931532014,g
10.23948623501798,6.809055763402118,3.415947235304575,3.318381106748557,2.2691384413789755,-3.3633065789162466,-5.585999262753688,3.1506413535863187,g
10.675780282179105,6.4653254356635985,3.371774774558415,2.9462044610658324,1.516532807980718,-4.110522512846758,-5.834881682895115,2.4945766780261827,g
11.354588467214333,6.513129794894082,3.683682994196919,2.9775682987843757,1.1974478867041802,-4.441409367852351,-5.894311125281666,2.1626702662850708,g
12.110949306297911,6.8074631945818265,4.1516674422713775,3.2259563531170143,1.1215149531273223,-4.620550737133402,-6.028097085876904,1.892979476865253,g
12.778482949099839,7.129433302291275,4.571303157322473,3.41384309748924,1.0823757824922453,-4.854013781132085,-6.373347632606576,1.513195557025904,g
13.317371780263523,7.369405158884545,4.869975884410868,3.391951012544374,1.0184513507151602,-5.16481431088917,-6.864649160893637,1.0817456028561505,g
13.859801228227706,7.636574897915116,5.170696893056784,3.286721474604245,1.0894473273079601,-5.362795161101312,-7.252797449668603,0.8897698735672828,g
14.586623669952095,8.130690561082833,5.70027030887954,3.4242156039354144,1.575157880276609,-5.1556620489338645,-7.228718981214517,1.3034433898680153,g
15.567249578796378,8.939472934233153,6.6043583319045736,4.084238705523997,2.6504730580212787,-4.371303251206743,-6.622686113469015,2.5109165089399985,g
16.69563050145361,9.963785143935317,7.802709572247811,5.271521538950412,4.199657179944902,-3.1426114043456943,-5.555259835555335,4.335739208196732,g
17.708839985350597,10.944951266440928,8.975138171389906,6.659757011264976,5.809498178864737,-1.883543802896344,-4.394529593559226,6.28125527711443,g
18.272732675816187,11.53445342090519,9.707633472041042,7.760930607921141,6.969835223220839,-1.037007204859784,-3.5168709735082557,7.810687293867334,g
18.17244045228384,11.47296844662527,9.747253621467227,8.238316911052284,7.372049341491722,-0.7798412909644356,-3.0584007274531455,8.659786698066029,g
17.504883377320184,10.826247147653977,9.189870056058263,8.136496191079136,7.0917912174757705,-0.9217574814365911,-2.8689371050097057,8.933333377285727,g
16.628645021598278,9.990175797910123,8.405621010509462,7.805620766063818,6.487741170729194,-1.0772267182272581,-2.700151259076071,8.917058399374909,g
15.843353289819518,9.351893676874624,7.728785867434705,7.561464101702924,5.883195131728764,-0.9690475242339283,-2.45613694151971,8.776957197907397,g
15.135323594428698,8.957465799508375,7.2013833256621975,7.409818648636414,5.317906316334129,-0.6252807404521519,-2.2928700287183474,8.403887211206435,g
14.279660777930967,8.570546699748059,6.618266632843579,7.106594680924171,4.5966804917636175,-0.322552894167623,-2.487554081691025,7.531751037582315,g
13.149838841001792,8.002636900907836,5.797419134893259,6.4600112726089165,3.5582373398063054,-0.3327390694398953,-3.189078646575733,6.024901638078526,g
11.87084859534615,7.296868312493113,4.786404055189014,5.546050443953753,2.281832063926613,-0.690585822900153,-4.262872736018076,4.078435141507957,g
10.710616573356722,6.639113629348271,3.8355157014417474,4.651333909581439,1.0514954866490407,-1.17679827242157,-5.368548743634325,2.1400361443395326,g
9.893808017298136,6.212732325872584,3.2133062150104714,4.047579316081701,0.15095323019954848,-1.5094932554893243,-6.199394958109813,0.6134518175236433,g
9.491909268878292,6.132024944357838,3.037477664648662,3.8142948275625237,-0.30959879721135747,-1.5468011089245637,-6.659436417079702,-0.38462155037083223,g
9.405633258477403,6.39795160759046,3.2346750611243507,3.8350353579487724,-0.40303381483880313,-1.3217488150537333,-6.826487267718787,-0.9971777819493468,g
9.445595071874088,6.888473868441304,3.642506740771586,3.9483180481695586,-0.2513798704953242,-0.9259032908265319,-6.778187731299406,-1.3883801835630627,g
9.489238885390517,7.469203187320888,4.163595598596925,4.118575222286951,0.11562539236447052,-0.4011747249411929,-6.4853837368252005,-1.5538804376241555,g
9.559942684499468,8.121914145770548,4.8189833412687495,4.457886839396947,0.7660600815768819,0.25330227596262533,-5.8727204208020884,-1.3593482198425577,g
9.701785574097656,8.881706857294235,5.634286496654966,5.056477381491591,1.720453585211446,1.0015442554505023,-4.956326847088318,-0.7400045836616014,g
9.799361266514918,9.649679876715258,6.490307716998158,5.798961897011522,2.8120461249313395,1.7285940392370374,-3.9046059544732854,0.1533404047854333,g
9.613373333819784,10.186068104365267,7.134511285478617,6.390663338748591,3.729277472098789,2.289255906769835,-2.9601802477399786,1.0084553960074136,g
9.016193915290481,10.334529594141017,7.361504153578809,6.586813286587107,4.2260607006273805,2.605871843475548,-2.288146233138972,1.564729161448597,g
8.122715836197425,10.161729342749112,7.164762810274047,6.3809467496460215,4.29376205801834,2.7253851917842176,-1.8759190812544766,1.8000007423393918,g
7.16371836772918,9.826562098280935,6.70791890366373,5.968295238602626,4.129476175478655,2.7743173349319217,-1.573427979107812,1.919483648813766,g
6.2891037426901155,9.396900583560518,6.172956007728413,5.553837493858723,3.9486114502156844,2.8374668434736394,-1.2479733692836497,2.145541963917105,g
5.5068219777158465,8.846636105385334,5.633157327844323,5.19502512264121,3.818216182888153,2.8638184803698987,-0.918844900554789,2.4946700221244553,g
3.812553919272498,7.226848767164451,4.188724454295681,4.116740857914695,3.190026828159017,2.1509173527713,-0.8981149019803862,2.6332391107058015,g
2.6757311711428686,6.066714127378427,3.035328566015523,3.1092948138868115,2.4042011197084863,1.2167358236542039,-1.3979557186987797,2.0668409750621373,g
1.391261516937179,4.71590616794059,1.637299818205351,1.8669188202624543,1.3670575334945432,0.005615290128744022,-2.1115912343370065,1.2279593596570102,g
1.3912615169371791,4.71590616794059,1.6372998182053515,1.8669188202624543,1.367057533494543,0.0056152901287439775,-2.1115912343370065,1.2279593596570106,g
0.20305225338614058,3.399220315411044,0.25512266563936725,0.6826054424531915,0.34976780978449784,-1.2601385337247595,-2.8199890546414936,0.44839420409209474,g
-0.6518498569865734,2.3722574137323207,-0.8142235914420717,-0.1549972877244697,-0.36384786379244977,-2.3490426859688447,-3.3363013737632174,-0.0016643407487375139,g
-1.1087966976189019,1.7410250670071803,-1.4129875044572555,-0.5418069404949785,-0.6477578319559796,-3.1114357917638062,-3.594685594797383,-0.07435299683357596,g
-1.2485648353781644,1.4660912109419149,-1.5783624296078342,-0.57700104301966,-0.5796854283764219,-3.5368866217258144,-3.6739472808612925,0.04994814514527448,g
-1.1691494286993835,1.4782152856208,-1.4747426269002228,-0.44842018182627735,-0.35827583708180566,-3.7468002203209982,-3.737607989330703,0.10905964588956488,g
-0.9409100372532075,1.6935286878531373,-1.2936530708021086,-0.31791665552749016,-0.18619400051997165,-3.9151705841803546,-3.9185420162851883,-0.05253748661105499,g
-0.625228869157674,1.970580259061509,-1.1652592402313033,-0.2631965509131196,-0.18685542332536653,-4.16044439147373,-4.228536967293733,-0.39643323693564325,g
-0.23645674560555677,2.1932441067328736,-1.0864375114427935,-0.2548244592852161,-0.36509771573418126,-4.477145852384789,-4.560449208697806,-0.7603540942308682,g
0.30279494096868487,2.4070736534476773,-0.9172532783549439,-0.18102073296388768,-0.6234766008881747,-4.749051669779073,-4.772208977818211,-1.0072376420119629,g
1.0811687777174779,2.764890313193181,-0.49294517171131524,0.05469949295717495,-0.845365741401045,-4.837755646845798,-4.786061760608699,-1.1263068457541585,g
2.057845629713521,3.3082424802581207,0.22250119293798046,0.4302850493787746,-0.9964003453389111,-4.70352008898501,-4.650157645804067,-1.2290319137133914,g
3.0549688605758876,3.8783513443400843,1.084866439421845,0.8082721451091898,-1.1567589691921034,-4.485589954499302,-4.539611378625376,-1.4711034923642214,g
3.8929419275037724,4.25729766604079,1.86312943553819,1.046665998959908,-1.4551203533582204,-4.461833697487616,-4.67959258734061,-1.953911627873762,g
4.491333950962172,4.3280515679442875,2.3864931312397886,1.1042356188108229,-1.9615941950628142,-4.873727182256887,-5.200352809461039,-2.6453555932656636,g
4.863362946488017,4.108008165887598,2.6455921878153297,1.0636978847509069,-2.6120355700029947,-5.727569341536649,-6.008382674414101,-3.361234174949493,g
5.095802778354404,3.7415197668729627,2.8090862868995488,1.0910831452478527,-3.200933408125229,-6.739000230425741,-6.790868979882092,-3.837659120507607,g
5.336808241811399,3.4872151428908955,3.137197151020126,1.3569366980261588,-3.457820727373408,-7.484189649729035,-7.181601514651684,-3.8653251755449896,g
5.704885052081332,3.584542996291822,3.8048890728703015,1.9248896164812117,-3.191010196732189,-7.647913481292984,-6.978899784495836,-3.3985359040670575,g
6.156593780860488,4.037999160058959,4.747659172100999,2.6708878177596653,-2.4133185187959034,-7.18805998671386,-6.2631279271896485,-2.5686309245256798,g
6.495703500074645,4.589301825471567,5.68142212571245,3.3345510297123035,-1.339590380497987,-6.3159413685944745,-5.341655063887797,-1.6050726904659363,g
6.550770387423563,4.965736918349482,6.29980582360945,3.6897082291372456,-0.2466658050197213,-5.327182345499591,-4.563992311436342,-0.7215881137055337,g
6.302284292619676,5.107684740530125,6.468802166766038,3.6761484563709663,0.6817590102388726,-4.408293460536521,-4.123854462586319,-0.030093132479677598,g
5.8222070753071415,5.11967957774446,6.262906880369164,3.37982776440533,1.4070089928739702,-3.5487457177580146,-3.9732643857671115,0.4781209133778619,g
5.172551381058101,5.0991947568407445,5.872989003113491,2.9300486786824607,1.9908379949785178,-2.6053122442319876,-3.9021923271897885,0.8853746292751105,g
4.42558313925676,5.106302501005019,5.503635586538878,2.4400602282717374,2.532357203553288,-1.4455638078668973,-3.713884807953258,1.2810446435433511,g
3.7190653550444295,5.222896655764744,5.300866557187867,2.001588114821322,3.1180596873283406,-0.04743465505301003,-3.357550528080729,1.7254406120154377,g
3.1946647285301144,5.505184002197089,5.292909726106597,1.666124803647827,3.7705550186322823,1.4959672123680456,-2.942536124629563,2.24205556658004,g
2.8776526906965088,5.878449243554759,5.369113726663568,1.4082398680227246,4.411231290089235,3.015626357448305,-2.673367624253392,2.798360648846612,g
2.6533296287264347,6.162106415549358,5.336952064664596,1.1256769655787493,4.879289336938983,4.296981004139576,-2.7722772933947053,3.2769544030590048,g
2.3418698528032698,6.19776676942192,5.028094410613429,0.6918893122196167,5.012207212272858,5.126861763077793,-3.39351484569056,3.5037024431981942,g
1.7820480745638219,5.91314094771529,4.389389227228385,0.03332210699292437,4.747586686673719,5.400307230284994,-4.5155570287319176,3.3711382933299143,g
0.925296064300612,5.33021183889339,3.5336269368610957,-0.790508771343302,4.1972642598264915,5.234656491070546,-5.875391459626245,2.9735425656405967,g
-0.06268478695563447,4.615859603579929,2.727309083196834,-1.553466235918799,3.636177253969843,4.956296804082983,-7.057713592975358,2.6016767422166978,g
-0.8440465299951958,4.067967622937805,2.258579364583687,-1.9672335566050467,3.357304372220438,4.899347592744441,-7.748115874916868,2.5447250874636382,g
-1.1800683900770788,3.884146086131584,2.2117248884635434,-1.9154651180978106,3.448625829633096,5.142768625258434,-7.978622265637144,2.8390737932655288,g
-1.1844920425847039,3.908616072022725,2.3478193946428614,-1.6061592439550263,3.6864426981732676,5.417316249571084,-8.139414514816464,3.192110562194771,g
-1.2226531708457766,3.7331008226881837,2.2767687357969613,-1.425966896980675,3.7002623469746942,5.3045500316737675,-8.693085333204044,3.18761697603855,g
-1.5186687200629865,3.120293437050028,1.8175465743530705,-1.57956062707111,3.3076328714579417,4.601771187866197,-9.781152001091725,2.6394871788333836,g
-1.8993648162961372,2.273476612804805,1.2096291047249277,-1.8597936602965084,2.716583543326623,3.5545588305612945,-11.03863928425351,1.8070637418235385,g
-1.9326566150946654,1.664402508732794,0.9645551537768545,-1.7820011600626864,2.3981751572456043,2.7308293278753677,-11.807418316991944,1.2632185072816473,g
-1.286482213314444,1.6524342055611505,1.4822318830968702,-0.9665472061206613,2.7310910990960977,2.599130886211107,-11.62926256680013,1.4798478796336967,g
0.003879878730149855,2.2524116427763614,2.7376592269955737,0.544981588617963,3.7046937714100556,3.148169472012984,-10.638830110109101,2.45113687093399,g
2.629481130756081,3.8342139622071185,5.4313579234767575,3.589115390332836,5.786919901391687,4.22667530899157,-8.97001483759246,4.524215162745567,g
2.9747381406786046,4.019392095932426,5.895118615093226,4.14859326424928,6.06911145974821,3.9821797982547387,-9.248025732392708,4.707523646017982,g
2.641749231920893,3.8170704561740214,5.8012586322050685,4.102789448436397,5.912694694159912,3.4860480467455894,-9.937293829787588,4.452462265377003,g
2.6417492319208935,3.817070456174021,5.8012586322050685,4.102789448436398,5.912694694159911,3.4860480467455894,-9.937293829787588,4.452462265377003,g
2.0992040242912897,3.713410416391702,5.6422525118168565,3.9413552237959193,5.7746339235932975,3.3234731026573443,-10.340550404675959,4.289430088434433,g
1.7550040689632649,4.129423436558437,5.833332242107369,4.070752586955385,6.035968733264762,3.874846759947431,-10.015549160042152,4.63949768917225,g
1.6466208277779502,5.0754179740420655,6.411176949825571,4.52342189173825,6.739899158908022,5.057645151066209,-9.078862095669546,5.531772713607217,g
1.544295339953944,6.2406226041990704,7.091800641957372,5.0292589448717395,7.635431053212002,6.434830174039303,-8.061656328274402,6.6363516311230155,g
1.2638705757828868,7.320598321403826,7.554475020153104,5.303335698811841,8.418423539614817,7.556572420494975,-7.469042952311705,7.544194541724761,g
0.8235660543285176,8.175722772243422,7.657549868115476,5.2485685142161875,8.925329829628998,8.248046673234978,-7.400996932992136,8.056261793082651,g
0.37903572567797345,8.773693511158895,7.460581257599074,4.957083960152509,9.165860851376115,8.645643609254495,-7.514143721036246,8.272061426001423,g
0.10613746554013134,9.13918218111703,7.127301068097299,4.603690735482166,9.250047763524579,9.006929060539779,-7.322318035006594,8.449777081031476,g
0.10701029001775222,9.346802223193036,6.8032469470550705,4.333031216645217,9.289848136132118,9.477424038253258,-6.578334935294116,8.783475359242058,g
0.31891489622687824,9.426146974527782,6.514505364425754,4.174154283602511,9.311585466539608,9.979671486999797,-5.449218743187531,9.26699785728433,g
0.5020490242394277,9.244277376880536,6.142201745368565,4.018879521247438,9.217278901839467,10.260979349340593,-4.3896149448091,9.706033006460538,g
0.3919057959170595,8.573127702386683,5.50703508587232,3.6950058367495657,8.833423415426354,10.035571322321134,-3.8440451508569864,9.832140159716479,g
-0.106213755015054,7.300850227176343,4.498509021964763,3.0821267419597023,8.021399362098382,9.138512982057987,-3.9943562248950277,9.44361829541005,g
-0.8857526382436817,5.5247612395771295,3.1425499223102324,2.1771946939843057,6.768991727695403,7.623358294542096,-4.699692432410531,8.51147015365524,g
-1.7552257527880482,3.4632534557687706,1.5898811573293021,1.094251408242225,5.214034311700365,5.749878242240245,-5.639969266527002,7.199964359402701,g
-2.5236656493784797,1.3736014444731386,0.07452905881692846,0.04039535911325078,3.6045874403183165,3.853382275316965,-6.5489955335767345,5.7825394739569225,g
-3.026473299329299,-0.47095043396287883,-1.1587491410754722,-0.7433661002621421,2.2037989612006648,2.1687936202026235,-7.369327207653498,4.500999992931576,g
-3.2067918680070173,-1.8909322612631858,-1.9825581870643716,-1.1097351512925495,1.1588895987819068,0.7281963851811591,-8.225194508003323,3.4614424314481043,g
-3.214587720556898,-2.9681091152689856,-2.4915755215381123,-1.124919179609712,0.4168616891617982,-0.6012424226834114,-9.26034370344496,2.6264498432657426,g
-3.3356384290814853,-4.006991075529093,-2.9493305531257876,-1.0375945737290997,-0.21994514499303364,-1.9781914210949245,-10.491200425382173,1.8857660430544947,g
-3.7568685992260007,-5.243109887560314,-3.5896238663189974,-1.0947133799465836,-0.9286007413481876,-3.4513413313806907,-11.78525601194271,1.1455764326054454,g
-4.433724334478984,-6.631680836887301,-4.461309590750278,-1.3843263104743218,-1.746313311204318,-4.917857456305998,-12.952755231463517,0.38368970901937016,g
-5.208752122275611,-7.957984067095642,-5.4564466827295615,-1.8492961170888371,-2.603434524325077,-6.202069195312428,-13.867506477828787,-0.35975092563372424,g
-6.006583436517558,-9.076999484390528,-6.45577139600933,-2.4154745997269194,-3.4448871876294076,-7.197623009576146,-14.540370491802548,-1.0500394308029712,g
-6.884238032237502,-9.990225348282832,-7.4321253322019185,-3.082680338855122,-4.29749413720295,-7.956628260535693,-15.100774435936966,-1.7224649426307383,g
-7.943039043902173,-10.769962414711701,-8.437462795914303,-3.9092410892660587,-5.222884499290927,-8.636100204635158,-15.684387479227595,-2.465235012402418,g
-9.216953740821697,-11.486961171448744,-9.50458632946623,-4.9228012647861,-6.2124158709355,-9.338211617630076,-16.299838835622108,-3.3201612655311417,g
-10.58004373950708,-12.145068071662909,-10.539231470489563,-6.026263476718041,-7.123010018138951,-9.99539997237587,-16.796565091943418,-4.203307798915157,g
-11.721688825400376,-12.598522501850177,-11.299747276026377,-6.983627847854346,-7.723758964514813,-10.416275145858572,-16.984091797023147,-4.940803322251822,g
-12.295044594855662,-12.593326180564345,-11.528010941733262,-7.543682065661358,-7.844445236998342,-10.446566281586183,-16.80119070734174,-5.393015764248377,g
-12.192193877671363,-12.005426271340397,-11.152888372785187,-7.629779357414749,-7.515381312344647,-10.09184284406767,-16.37571191844807,-5.550914968174585,g
-11.665054866449282,-11.027194469118573,-10.36908356554663,-7.408529224039675,-6.96025427405484,-9.505404765220113,-15.927063355596086,-5.528600812540762,g
-11.11415153749309,-10.03429282745319,-9.493504248928097,-7.143651884897838,-6.426698599364947,-8.87452646155288,-15.608352768218776,-5.47413932315023,g
-10.759516270926259,-9.276118008260665,-8.737849540745577,-6.975943993326361,-6.007198780873854,-8.30044301303301,-15.412545286339077,-5.46933215211128,g
-10.541669161443192,-8.756429095760591,-8.11385440841067,-6.849399449727935,-5.616009034353169,-7.74774898225097,-15.194863736518021,-5.481977500370299,g
-10.292592990470062,-8.370626944184291,-7.521692138909761,-6.629389085213314,-5.126121708439461,-7.096290594088481,-14.79131971348188,-5.408215751092282,g
-9.93447388130186,-8.052382836443162,-6.898645204521017,-6.270554229687682,-4.527941813140953,-6.272883681383108,-14.164868962718424,-5.189234003071084,g
-9.547717588843724,-7.80494944310378,-6.307561355217323,-5.8936569950563955,-3.9855381014658966,-5.370348753035488,-13.476595256897474,-4.913104020743381,g
-9.336196806989392,-7.71373122275738,-5.929548188140233,-5.73678164024647,-3.765713677831397,-4.644686900219871,-13.008275651819247,-4.799660377051833,g
-9.517627861758125,-7.946644370328215,-5.965439743263238,-6.0116717410203595,-4.085767308540526,-4.371321101548364,-12.97877277509009,-5.061876018008626,g
-10.147865194285167,-8.622942019175357,-6.488735405516719,-6.7411623179788425,-4.965047271646629,-4.664331524901393,-13.395613225272925,-5.751848776121986,g
-11.016219929175858,-9.626229925233599,-7.362332451359708,-7.705752153461788,-6.1866956330813565,-5.393119736359409,-14.048144816910588,-6.709457396757374,g
-12.204317472970605,-11.352581781992521,-9.10651994840231,-9.137759112293065,-8.41772810166292,-6.932179433492533,-14.87158653637064,-8.27719466756005,g
-12.336376914081244,-11.758053665901706,-9.651047614476699,-9.382941679727976,-9.126283870872804,-7.296667680683076,-14.701688415355278,-8.499652371172482,g
-12.326104279534249,-11.958790931178418,-9.974848193972175,-9.444394081368527,-9.639940689614743,-7.431825993273911,-14.233803489721804,-8.391556626698565,g
-12.32610427953425,-11.958790931178418,-9.974848193972175,-9.444394081368527,-9.639940689614743,-7.431825993273909,-14.233803489721804,-8.391556626698565,g
-12.300493716948253,-12.059051460952357,-10.149529620632284,-9.458216846202907,-10.074029330081622,-7.542910937620734,-13.703790425502433,-8.14249520402575,g
-12.330891076380546,-12.115983174972898,-10.244853401723171,-9.501206680952247,-10.466020684696696,-7.757280842831912,-13.298028601082857,-7.889001245560737,g
-12.438898521174144,-12.14611540057788,-10.290530999582108,-9.57864884501064,-10.741736103774121,-7.994430523403376,-13.01790040727119,-7.612692281893298,g
-12.544892286073164,-12.064997387757995,-10.231458740389737,-9.619107081062973,-10.745641054063404,-8.013170281191796,-12.689248876832782,-7.18331605740678,g
-12.469315116343328,-11.690610544308178,-9.942844681426681,-9.508709692957506,-10.336637350833392,-7.597636164428574,-12.115189987621923,-6.503254676184527,g
-12.069687564853048,-10.917076049545399,-9.332440861987138,-9.181709868050525,-9.504570990149745,-6.727672897387242,-11.24926698149063,-5.625165377889741,g
-11.363025914021652,-9.856119469141287,-8.428746937555406,-8.679942143858046,-8.403092506114112,-5.598972657976603,-10.251978017117846,-4.750119735223114,g
-10.476224316617666,-8.728864635559104,-7.35710764496927,-8.105980941360311,-7.252132751242192,-4.487055744965907,-9.388164474565041,-4.114602121980485,g
-9.520195244336303,-7.6605698226595225,-6.252345322661777,-7.534478647405464,-6.205706394655136,-3.5730523112929427,-8.843095556214653,-3.850401809978373,g
-8.562665267596497,-6.66626307349812,-5.216878231532839,-6.988797443666405,-5.314842225565793,-2.8718018626856665,-8.598780172306508,-3.9159076027141753,g
-7.668934088056271,-5.786305937662165,-4.331571239446111,-6.473286177326779,-4.590184913487476,-2.309120976154092,-8.470951988938847,-4.149781197405002,g
-6.883414631770495,-5.112606545360075,-3.653323674895712,-5.9818422595961,-4.06228587363082,-1.8603791839241997,-8.27470892334878,-4.40360856004126,g
-6.190018876908596,-4.685031857509895,-3.192906873401085,-5.482006638123593,-3.776422105626858,-1.6074001197749959,-7.968264321148905,-4.636528834708008,g
-5.565573879069778,-4.464140668564687,-2.918591005840334,-4.933712770251313,-3.7495710854381867,-1.6577279991197638,-7.646673474101195,-4.889692234093095,g
-5.065018459117775,-4.411640862906628,-2.7826112382403387,-4.334338664703477,-3.938397953615911,-2.018118369295687,-7.412183804412832,-5.18383323878623,g
-4.792555417682541,-4.510112790157476,-2.7345867477191628,-3.727641607124897,-4.243476435237101,-2.5624673515049627,-7.267308751184676,-5.459004148206195,g
-4.805398086142601,-4.709461825641826,-2.7387325151735604,-3.179146717086412,-4.562539947191054,-3.129241279467162,-7.131620437088489,-5.613732114729852,g
-5.11835225808119,-4.963130707318216,-2.8253406608155487,-2.773296072206788,-4.873027431662033,-3.6479342986404086,-6.943324190728414,-5.587507127087741,g
-5.787981251974906,-5.3342801741312424,-3.1192385727807688,-2.62023331369073,-5.26497625985281,-4.174116287434009,-6.7334755426252615,-5.400314305895297,g
-6.890554966285481,-5.951496987275507,-3.7579363209274184,-2.8057322668925617,-5.857867190485272,-4.807489537576244,-6.604545687154949,-5.1229735391106255,g
-8.380242718813678,-6.805440602740181,-4.7420146918203745,-3.303003657712437,-6.657241892672114,-5.566431271279491,-6.632519132109839,-4.812767304802801,g
-10.03299163550853,-7.671796080009014,-5.875447239860711,-3.9562520159648584,-7.495727935119355,-6.32111009017207,-6.772741614923402,-4.465172152830073,g
-11.567359327159123,-8.288613919201843,-6.869362627618015,-4.57391952612229,-8.12536060568095,-6.845367239711289,-6.856545719661135,-4.0194167843841,g
-12.787316767284446,-8.548187648417038,-7.510593254025549,-5.03510377917482,-8.374196635810247,-6.960084146343787,-6.699572041777378,-3.417855327667181,g
-13.616429481308725,-8.490618667902734,-7.761040576754949,-5.317814333680192,-8.237291659004446,-6.658487927978392,-6.235505223082028,-2.667204840616982,g
-14.084704895936735,-8.214520743583748,-7.750374293505535,-5.46796456083805,-7.858594512745176,-6.1083287131614465,-5.553162417772033,-1.8415942631469506,g
-14.326505331443062,-7.866945463665603,-7.689563634698,-5.560223466191336,-7.442029888473162,-5.536150984700879,-4.81331538908867,-1.0332452692552212,g
-14.51613932266515,-7.629934157939191,-7.740891620943707,-5.651061344213944,-7.145517130207756,-5.105166456397693,-4.145518250073943,-0.31890155341351245,g
-14.731983550392133,-7.6048619350802396,-7.917044372196388,-5.730834679368489,-7.01278908504622,-4.882055206078372,-3.6231784403939664,0.21999467747817952,g
-14.913644438537029,-7.741443659529554,-8.105386565870536,-5.735045621549071,-6.993184257104704,-4.881887270713316,-3.3061649709552263,0.46648702446819745,g
-14.99707308808217,-7.956219353130914,-8.213226900427562,-5.633101392147102,-7.037300856692764,-5.117127071331085,-3.2731346574393902,0.28780899590948417,g
-15.051219244465699,-8.279369062986628,-8.288140968206855,-5.500022867790055,-7.17380935420083,-5.605642174994239,-3.59999709101738,-0.39448396633570565,g
-15.231201929486264,-8.804376420526951,-8.48795248104216,-5.477489192988697,-7.4872643631420575,-6.343996693192952,-4.301060956298257,-1.5362138247286297,g
-15.6327855594952,-9.53181967416529,-8.946184914551473,-5.664888357848871,-8.028652320172123,-7.270211811523547,-5.275450099844783,-2.951137950370588,g
-16.23845463406851,-10.349180651028295,-9.66999645864659,-6.052316988651138,-8.75425793129927,-8.243385750048995,-6.3063339965093785,-4.35952474721699,g
-16.9531332092497,-11.129692188244046,-10.529870890920714,-6.53209289922485,-9.534095719669832,-9.069109284292717,-7.14151973327687,-5.4961978200674375,g
-17.616052791205764,-11.756248115761505,-11.313120606577383,-6.950996780965508,-10.200880017709967,-9.572209420953115,-7.616973258591732,-6.226746296067817,g
-18.017058645336906,-12.085113321936024,-11.819818113467885,-7.18541813269197,-10.612653448894255,-9.670839014868712,-7.723384511823033,-6.589598971352958,g
-18.013148615350683,-12.023867533335828,-11.980524363343758,-7.229642772506574,-10.72028361809186,-9.400082691853964,-7.556808475616985,-6.7254698449014985,g
-17.66060891038358,-11.675067179539601,-11.91515473043539,-7.226770548999779,-10.604011451462423,-8.882778456013634,-7.212632381839242,-6.7550696980951415,g
-17.181504164744748,-11.304754818563774,-11.85651955998635,-7.37459850394516,-10.431939304374282,-8.28139624044441,-6.730904743101777,-6.708457038509567,g
-16.78746719904445,-11.126251056348709,-11.988564877016804,-7.768833763112999,-10.355880889237786,-7.747712925094495,-6.122577391049606,-6.54483965965874,g
-16.493169418448417,-11.343265653171152,-12.782673454851999,-8.874602986520735,-10.563606235730877,-7.142311958304293,-4.683201481304696,-5.737726738370601,g
-16.49215183046039,-11.558014411290477,-13.14238108141663,-9.22584023120627,-10.644643297960092,-7.00451082676472,-4.026671994334968,-5.196499220184197,g
-16.451903552105417,-11.733061046959927,-13.287740464212234,-9.321753757128421,-10.575760701519908,-6.9361157853913245,-3.5890895766347923,-4.771533067533895,g
-16.451903552105417,-11.733061046959927,-13.287740464212234,-9.321753757128421,-10.575760701519908,-6.936115785391325,-3.5890895766347923,-4.771533067533895,g
-16.33020934076205,-11.854902138411608,-13.252370416299033,-9.265150798998564,-10.411132482993555,-7.024397454504839,-3.521772255141473,-4.664457361637432,g
-16.25859958846593,-12.054155037345355,-13.255773760636995,-9.301641443953601,-10.363978515857655,-7.414425275237664,-3.9202157508463324,-5.000088397060294,g
-16.46243523727035,-12.514815251643473,-13.547589020420881,-9.661794017077554,-10.656069763624913,-8.153016159768729,-4.737679470767232,-5.733716322636557,g
-16.99307174723629,-13.195497855301605,-14.147440513720786,-10.336242682751243,-11.281219052748304,-9.045785254990577,-5.731992490012183,-6.6278196134157685,g
-17.56843783835842,-13.702585079815014,-14.729221456715681,-10.995417689148326,-11.907377227177573,-9.669219866660065,-6.505038669226485,-7.32709893097157,g
-17.737331997316765,-13.55402038196577,-14.809935017298693,-11.182561390077977,-12.063473938677294,-9.585510349541055,-6.666618691987078,-7.52202234388181,g
-17.212261596680584,-12.584415421655471,-14.110887939229837,-10.646172586390259,-11.494086267472287,-8.646967359613473,-6.071726597646305,-7.139613547498369,g
-16.07399878756355,-11.084925111291309,-12.796144792087762,-9.54322242760975,-10.39601483947568,-7.166062868448106,-4.973379965810349,-6.438688411149087,g
-14.745674718404505,-9.620994831440893,-11.408961939634034,-8.365387695720926,-9.340881825117247,-5.785760977278068,-3.92828755776583,-5.895329793927312,g
-13.79937226457857,-8.747338933121863,-10.553621511302195,-7.643770495895787,-8.925856488717763,-5.107796434252213,-3.467207760835209,-5.9073965479656945,g
-13.663274901216221,-8.756180667949485,-10.525714704198256,-7.611584653180583,-9.385658071961945,-5.344321301826382,-3.7618510128497866,-6.524016094818113,g
-14.36294818042251,-9.520310065029248,-11.13983322808208,-8.044644066787326,-10.43996186683324,-6.249860727521995,-4.549755138194035,-7.421300273504734,g
-15.529744995707912,-10.584108222378351,-11.904788184895256,-8.42883593020318,-11.508203346021672,-7.362532392713487,-5.366797687673062,-8.15130859683391,g
-14.059417891176718,-11.542021728915248,-12.43354012857783,-8.36701623429423,-12.146872181162395,-8.345127916182829,-5.89019292877496,-8.467471770632978,g
-12.463368668321364,-12.379322791089422,-12.744065618634165,-7.895719823909312,-12.362233871382271,-9.171756794761924,-6.135613076891598,-8.481640763933468,g
5.803281992266728,5.228039665763167,9.281048798918313,7.573796882508484,12.680702189091203,6.991680712892512,7.298215610914204,10.729395577564624,g
6.355140733426038,5.330864761872194,9.63870065308404,8.17728189606932,13.33743886508464,7.446710331786422,8.350536960680193,12.170471425464802,g
6.475972542473168,5.15242981971749,9.610085555528533,8.39168076975695,13.567664311407693,7.70275224884742,8.989854669457618,12.859639957491193,g
6.244118496957162,4.887548037194213,9.309845396108326,8.27929466388348,13.514193749964122,7.879129324180321,9.309758457926367,12.936544801019693,g
5.909235685072994,4.781699077544385,9.007301348132913,8.096305762223823,13.454785939286788,8.195886113529538,9.571474753870717,12.758178434928215,g
5.661919085033316,4.924378536041285,8.888190904515595,8.070195429301496,13.557771329024561,8.775887234045024,9.978946299136044,12.621198234372761,g
5.50756218514612,5.234723572428582,8.925231941308759,8.23490301725023,13.754193142295943,9.521247529288745,10.51563023479415,12.562751796254394,g
5.2548601981539935,5.509774495388383,8.907741315847542,8.398777577551423,13.792551146255443,10.163470275965542,10.966408206117281,12.385335276619333,g
4.645886303421801,5.502452386332058,8.600836682423012,8.270047095764289,13.428765784058982,10.4439279173458,11.085860944918512,11.860095641462724,g
3.5985339952895075,5.092366133436886,7.936899934407161,7.681770516022188,12.62312235189402,10.278076485039332,10.76229474942114,10.926405455517548,g
2.343821749147934,4.423793720018823,7.086293148990713,6.744475491513907,11.591936435477638,9.786943903758464,10.066616310749929,9.742652286051145,g
1.2686351832318155,3.798238663751883,6.332919605247051,5.781307731350995,10.6627202888418,9.19817831682935,9.192793406202927,8.587114318393503,g
0.6122135074538242,3.410920374817304,5.873592643012151,5.105039425770805,10.05860874575557,8.706461614397114,8.35778213265107,7.705807677591669,g
0.34763810959888153,3.2552441082562735,5.73176372558053,4.839725827583834,9.798220382529994,8.38482433356225,7.7137161125272815,7.201756418866625,g
0.3211244012306203,3.264332255680049,5.823122484658517,4.901439371581684,9.762595453031604,8.187723428539535,7.302501198002355,7.012979993679505,g
0.4157369417217421,3.420308896938341,6.048885256283217,5.086746840105751,9.820799319908142,8.024760078912463,7.069100332932683,6.978188503541527,g
0.5765091899673452,3.6862062306545496,6.324111261919279,5.182800650685272,9.898313953325355,7.836241829171503,6.914694130883577,6.941425686723929,g
0.7710989836555778,3.9406212068235313,6.568231255509636,5.063258556223736,9.971131870113101,7.608652671955286,6.743167219162389,6.826338201435993,g
0.970724898950835,4.054831815395767,6.704332543363654,4.734566074578563,10.02742720983786,7.340853877805929,6.485179829292642,6.6501949547024735,g
1.1192406791781615,3.9790155750264935,6.664458178774922,4.291570271729325,10.034722537079238,7.031360943756082,6.1286778530364705,6.504228669887634,g
1.1042144097814304,3.7182417147269753,6.402465785644655,3.8210030762712,9.942201483238222,6.71702846933839,5.758086054186071,6.525519390541126,g
0.8284013299787805,3.3062292851290946,5.933186716428734,3.357770054608705,9.726398826322212,6.501687612063778,5.542211819222981,6.844997949449403,g
0.3411680331286955,2.850902230718332,5.359577928331577,2.920039265810206,9.429471368550912,6.503338105545028,5.630612250648172,7.502707684497651,g
-0.17551922789332577,2.5039648487537027,4.810618903704015,2.53158129647099,9.11875183916409,6.74428026344043,6.020402036749504,8.37938406683156,g
-0.610079792341505,2.2840872061137323,4.3137251689859495,2.177597308569996,8.785390033012643,7.085703330410458,6.507449055447966,9.211448988900806,g
-1.060456678098623,1.9854709713723253,3.7469920572849253,1.7728713011173092,8.299557360881385,7.273572908632711,6.7709437247118895,9.69685881295904,g
-1.712742824288604,1.3617250624243724,2.951148998584924,1.2230416514936064,7.495930194929917,7.0682714136237434,6.540032440785859,9.631247304707289,g
-2.6137060190302575,0.38050926962503506,1.8915920852063444,0.5239316646705909,6.314933040678456,6.3725494189120955,5.743642303121734,8.998264302079372,g
-3.605123880025277,-0.7657423791967309,0.7076038214176491,-0.21261920007314677,4.863765802509948,5.275961602610372,4.550399974596706,7.961112165590289,g
-4.437890718578599,-1.8529388439541272,-0.37640127249810884,-0.8230046867270409,3.351746764738705,3.9832878976283452,3.255477865471886,6.747462601020191,g
-4.903817922436366,-2.749188014196579,-1.1809324987939376,-1.1801202668529769,1.9663916537561952,2.6769207658184357,2.077335356178373,5.494382336714187,g
-4.596604960197434,-3.846354870427345,-1.9071633305541997,-1.1692537594073225,-0.255097601569896,0.22573240466961,-0.036781885757177245,2.6873829259968973,g
-4.184077580716847,-4.175092468996726,-2.077138363218217,-1.0782150299455706,-1.218079789537517,-0.8955519641332017,-1.190548118695037,1.0100193399035209,g
-3.910155800243529,-4.461445963709577,-2.2381425072232997,-1.090053024637531,-2.0903208602957046,-1.7982862452583723,-2.3084777501266744,-0.6910244291102392,g
-3.910155800243529,-4.461445963709578,-2.2381425072232997,-1.090053024637531,-2.0903208602957046,-1.7982862452583723,-2.308477750126675,-0.6910244291102391,g
-3.8062523270815496,-4.622381044505135,-2.31283189280489,-1.1459350094384988,-2.7162069189385614,-2.2804630429365105,-3.089594438528443,-2.1319030904387475,g
-3.7624012317088935,-4.493327849035678,-2.1769217109615178,-1.0967421865527152,-2.911702523875499,-2.190151519840863,-3.2425426277871097,-3.0748339707405696,g
-3.723096511552547,-4.037079803088493,-1.8218966393548004,-0.8728811531038188,-2.628914059854892,-1.515079824666182,-2.6720594537466207,-3.4649323715066584,g
-3.7656950542640977,-3.4002972796252147,-1.4005977122883824,-0.571738965987836,-2.0141066577958324,-0.40029515668740084,-1.5480965588983944,-3.4506971570402607,g
-4.003520543944117,-2.7581815525360156,-1.1215248952856078,-0.3930729565347558,-1.3133962921016706,0.9000604234627728,-0.2259988703074284,-3.2861412080233654,g
-4.49685260098794,-2.201570346644048,-1.1222730678786998,-0.5179380617480198,-0.7301401661749549,2.1112205147299585,0.930239862479542,-3.1821987176782205,g
-5.259587581330125,-1.791440171564382,-1.4246481117273373,-1.0282077771026104,-0.34652533260108465,3.0305373185661773,1.712806692412089,-3.2057783202355297,g
-6.256156404286402,-1.6020749629274562,-1.957158333417332,-1.876601731435878,-0.13347496698338018,3.5758757678515942,2.11600522506868,-3.2953305744139803,g
-7.359211438497996,-1.649204552645335,-2.612049786001916,-2.910931375494534,-0.023800413183490132,3.759046175052456,2.2424038354844327,-3.3720971281513172,g
-8.394301995697646,-1.8719559313571115,-3.3319386122740418,-3.974082124752523,-0.012003218176196984,3.610585675333057,2.160076338381196,-3.4445711919128845,g
-9.27871383583631,-2.255956579456043,-4.16929799414397,-5.018885169788364,-0.2073398174160736,3.1258140104683987,1.8324948868596358,-3.614029706664836,g
-10.058095935919226,-2.8860242674588568,-5.224154930582559,-6.105696500237372,-0.7641101806633193,2.28337881430794,1.1682626605989221,-3.982986303033253,g
-10.76059428299655,-3.785726407480621,-6.484066253927381,-7.263178328139878,-1.7237435361078444,1.1225332177150373,0.14070298951978275,-4.549648025910944,g
-11.270355776117338,-4.7650414186646906,-7.736857898445571,-8.370599889124755,-2.9212374038720084,-0.18957370598010098,-1.1172448815930651,-5.173554191417095,g
-11.39706719557207,-5.519700256988556,-8.667325694614389,-9.200233965552176,-4.0606249183696885,-1.3736785880906386,-2.322123317373002,-5.641190204298819,g
-11.029382790980218,-5.85200006808903,-9.04468659604057,-9.565292048202215,-4.891643362943785,-2.1554248802076024,-3.168748320139552,-5.7923369578969295,g
-10.18292022688781,-5.740027324295814,-8.832359903057112,-9.42471619881526,-5.334770014891129,-2.4143062627651615,-3.4996267265813144,-5.6179211045552675,g
-8.959336369760113,-5.2614619554860145,-8.166542186250531,-8.886556410472929,-5.478950247884708,-2.2463954330395643,-3.3823758305230633,-5.246916285896037,g
-7.522510731261586,-4.547241948350182,-7.25806445762939,-8.144677342782538,-5.48462183456927,-1.8793318292368473,-3.029884613995558,-4.82866792922064,g
-6.0635017984039,-3.756424051565714,-6.275671172241294,-7.381909260640574,-5.462875873720389,-1.5064136537979629,-2.64026322259467,-4.420695264723683,g
-4.700907186395297,-2.96987759005387,-5.266473979842031,-6.679222906611464,-5.403663399205521,-1.178375632835527,-2.297330962359202,-3.988983334395873,g
-3.4271996491423367,-2.1137992233716942,-4.18481863216261,-6.011284600940281,-5.211888220030559,-0.8304843822462573,-1.992033825565644,-3.50675102974071,g
-2.2153763318756674,-1.092496981142092,-3.0261014760493103,-5.355574860397928,-4.833786073752516,-0.39984354187468696,-1.7077296569712872,-3.038064819466547,g
-1.1583820221596557,-0.0010522586086244346,-1.928548712283765,-4.800543858522602,-4.355594619591554,0.07398399083786025,-1.4816816479641037,-2.7252854933009028,g
-0.4333008583485659,0.8882747111863974,-1.1165292575349115,-4.5177480283756175,-3.969587134983359,0.4387383846784417,-1.4047232707813524,-2.7061511752070877,g
-0.13865137069290268,1.3612630322005166,-0.7435661176665733,-4.628307560147896,-3.8438916277278095,0.5099074703659102,-1.573158624579094,-3.0397338100832005,g
-0.23411480151794106,1.4029890327005332,-0.8041150357339181,-5.1153190420350985,-4.025933716151867,0.18372264719771275,-2.0303126530102333,-3.689275520443504,g
-0.6243093376049614,1.1193280571694744,-1.1724182986933191,-5.846554466758969,-4.441760731300406,-0.4934417660634072,-2.736768812555577,-4.555089755353248,g
-1.2094165717049081,0.645242604629858,-1.6783617230830195,-6.636763985253547,-4.943777784823073,-1.3416490435456163,-3.5830785666787364,-5.519117699222195,g
-1.8379990813991103,0.1643664574938114,-2.148764945211182,-7.293187792777671,-5.35664369671826,-2.1280246855870453,-4.41993324687744,-6.462898024662572,g
-2.303529310950871,-0.10980650983801825,-2.4401054175510977,-7.6678101188561785,-5.529126095251271,-2.6539538228974,-5.079391702601787,-7.255854459903368,g
-2.4518936251845664,-0.07161072324132356,-2.485501046484097,-7.717984754200437,-5.395422715071743,-2.8129655182314153,-5.403458260058917,-7.756924520770431,g
-2.2700828745926573,0.20313804424225013,-2.315241438730458,-7.51410073352894,-5.002989166129167,-2.615095727310991,-5.306743921034763,-7.866360272821329,g
-1.863476977443422,0.5677642629149572,-2.025982481203715,-7.176192513474336,-4.4763738327495215,-2.1695866721480424,-4.838066716158922,-7.591685078325047,g
-1.3971417621335196,0.9325836922337292,-1.73367510959659,-6.808328928238289,-3.945306184661726,-1.6125465127846517,-4.160320223352732,-7.044776575762205,g
-1.0549163144433813,1.254564263757099,-1.5331553145027714,-6.47704837117981,-3.4813329279519616,-1.0091783784499546,-3.433301777467618,-6.349351131055226,g
-0.9537044649209033,1.4980064287489665,-1.4505341052786922,-6.201458324905307,-3.06546266924686,-0.3113255530148793,-2.698626182142475,-5.546053629683312,g
-1.0361752359505718,1.6796605313275932,-1.4187405831507243,-5.9433119479472865,-2.6119618337452666,0.5757029071136174,-1.8809679691860643,-4.596291964390497,g
-1.1141699705884676,1.8689121600428447,-1.3473770669429492,-5.651444843929614,-2.066718733968621,1.6641311380321568,-0.907229507853927,-3.4822138296874696,g
-1.0911130585169697,2.0432700737864447,-1.2562441466608087,-5.357700228118071,-1.518229454104815,2.807975167646693,0.16860121738618536,-2.300324936255326,g
-1.1046318611105606,2.0044882209893715,-1.3117374822870718,-5.204360862766764,-1.1916789437548156,3.7550144654706608,1.1486381936588124,-1.2540929616456726,g
-1.3876142206036974,1.557639439166019,-1.6816436744501844,-5.329896125558337,-1.286528182580088,4.293048168973795,1.8014441456027916,-0.5429817754325439,g
-2.8500884800234143,-0.10949820051675267,-3.1019817895839474,-6.240307980361534,-2.5221171890464302,4.1615985156364825,1.8796523764496427,-0.21634657851801925,g
-3.6754611491781355,-0.7974253560234624,-3.690233852047726,-6.698981638780815,-3.2005301299647853,3.846296968406185,1.5991067550265912,-0.30578976556190834,g
-4.36383217844792,-1.260910721682802,-4.025253701865346,-7.044142987110979,-3.731621904313685,3.5482201841821563,1.3350632291976967,-0.39678263134439284,g
-4.36383217844792,-1.260910721682802,-4.025253701865346,-7.044142987110979,-3.731621904313685,3.5482201841821555,1.3350632291976965,-0.39678263134439273,g
-4.917778226516475,-1.6132970320100894,-4.229016797213761,-7.349669100544352,-4.206301523165527,3.2097352446635186,1.0799100809165971,-0.5542682749631236,g
-5.457741303663193,-2.018536522166707,-4.540136710588979,-7.759497776905174,-4.806304832115872,2.6799628697968445,0.6950780327023058,-0.940011296688661,g
-6.147728352770061,-2.6118136519025685,-5.134661184127361,-8.386421743206146,-5.636946623948751,1.8704913542392596,0.06148236855692839,-1.645847647017284,g
-7.046661832789212,-3.3916287573320703,-5.9733650563704686,-9.215384287257184,-6.616515504271537,0.8481311222249811,-0.799272566572615,-2.586842269755249,g
-8.013809448563329,-4.151142013005385,-6.80105941362095,-10.085724277217928,-7.509240300430219,-0.20174045143869118,-1.7246369940905701,-3.5412369747412873,g
-8.8136691878948,-4.610116582189789,-7.324074431168926,-10.793750854945262,-8.083544785356953,-1.0821487991864207,-2.5003118469553347,-4.2847833782945965,g
-9.314811225883478,-4.656873383854803,-7.410912110221204,-11.223683957986223,-8.25555572618677,-1.6630139857145974,-2.9540490552221597,-4.701976620105219,g
-9.534045523507746,-4.39610244083869,-7.125542237971091,-11.36705222525967,-8.085844430063393,-1.8948761535893575,-3.00825571766613,-4.80297864322341,g
-9.51160077673819,-3.955846333452431,-6.59967000902896,-11.23844689752551,-7.662573104706718,-1.7896361768784494,-2.691845479851835,-4.658625697247815,g
-9.249605473289058,-3.359465559998301,-5.926355176239985,-10.833026481767455,-7.0279902995154,-1.4061300836347137,-2.118361805429133,-4.31795053398366,g
-8.800032621755664,-2.6269321481725405,-5.17595965334945,-10.183501245487486,-6.22128113250467,-0.8439892119846075,-1.4348623662088411,-3.774698696902761,g
-8.312504951460665,-1.8784606167427291,-4.442997291202795,-9.403628807198178,-5.342526447650042,-0.22343511412038045,-0.7580493057050349,-3.0039586272421297,g
-7.922478402895519,-1.2384726730250857,-3.8183951966427068,-8.625354740510602,-4.527091732060976,0.36362983004606925,-0.12504676880049798,-2.025268628724169,g
-7.640574210529024,-0.7059808953443065,-3.3285863629816896,-7.905400286522118,-3.859079277773366,0.9050443236796563,0.5121541278078536,-0.9277307796117229,g
-7.409228186013658,-0.21633644001611252,-2.9406188428482296,-7.224175115834956,-3.3359598988486083,1.4596891862172516,1.2256187392761084,0.1550068468962756,g
-7.235603283869854,0.20387180758960372,-2.6356634974243778,-6.572387063508489,-2.925643633719656,2.0598556749303194,1.9986412234203894,1.07456903388989,g
-7.225931421489257,0.415325925888862,-2.4706546380758914,-6.023453721450592,-2.649113459477658,2.602812734563888,2.650152114793949,1.6775279951742033,g
-7.515081891913619,0.2706901145758561,-2.5684328386640147,-5.724323999824667,-2.5984629235574968,2.8696082852830553,2.9093258846378864,1.8329023610874366,g
-8.174759038891404,-0.29631022216405273,-3.0270207770837056,-5.803855942067347,-2.856282981773476,2.7064561502588624,2.6361271025580573,1.5081130115542922,g
-9.117842956450346,-1.2052210933468832,-3.7866811799565396,-6.242287528942514,-3.368659273348728,2.2149555881550547,2.005175380351335,0.8364218842080777,g
-10.043083306938707,-2.167816115462745,-4.5667145112871665,-6.806951623923858,-3.89640838265315,1.741921102850591,1.4460770466084312,0.07833775904882403,g
-10.559531943293276,-2.7770588130779537,-4.9944254553485745,-7.170197220247852,-4.144040605544617,1.6319060151189635,1.3399431963728314,-0.533567419159759,g
-10.489355632638842,-2.8164052629479928,-4.881312376877258,-7.16732418783607,-4.000579746070807,1.9397407219842022,1.7126108346807745,-0.952853364021337,g
-10.054009059579894,-2.498389257685214,-4.396270391894755,-6.951662076331648,-3.6672227944957583,2.357432344111435,2.1901159719605334,-1.3455716183953288,g
-9.687125746693747,-2.2941333306760363,-3.937025680693984,-6.855835672190944,-3.514183567389155,2.435152068808069,2.2686784473091324,-1.9501352955680584,g
-9.645702243402269,-2.497709167358745,-3.80802271018786,-7.077245943127073,-3.7775483700796952,1.929190565615372,1.697030546609146,-2.8648128145200675,g
-9.83049750791829,-3.0111182288449383,-4.0107816605835485,-7.500109792282236,-4.376523956371271,0.9967232809058313,0.6757650112736638,-3.9225038053514405,g
-9.947417810423731,-3.528468280682671,-4.309194104276087,-7.806912977055745,-5.0048986158241,0.07286991365140592,-0.28803973833407537,-4.767355884810733,g
-9.771274398520026,-3.824814602122366,-4.455900578024036,-7.739650744865301,-5.386533189003437,-0.47126405770202584,-0.7618652881092427,-5.098055127299362,g
-9.280907084842273,-3.8697060976995936,-4.3718439495730275,-7.279675900323691,-5.4684068261843,-0.6000815942665335,-0.6959593419847009,-4.890079614887865,g
-8.65098520342022,-3.796488879858289,-4.173657191468534,-6.638552766962398,-5.42160573807955,-0.5923510322700796,-0.41174294576496734,-4.408605449268484,g
-8.14646386626853,-3.824017517816734,-4.0641719969768175,-6.095284272312006,-5.48314998958023,-0.7766653907510044,-0.3088420144727892,-4.003978470507854,g
-7.942132166834748,-4.11540044627077,-4.172496733936718,-5.797182010029251,-5.7722784037020585,-1.278659496542748,-0.5640230165508963,-3.8690414722354545,g
-7.987383581385752,-4.6394090209412635,-4.469296926543637,-5.67646809949669,-6.22139315697393,-1.9818060196374578,-1.0586959106939346,-3.9470296986779347,g
-8.080848011300057,-5.22003741253758,-4.833251391384142,-5.563112263230595,-6.668809980165098,-2.6826786966312524,-1.5402964634594742,-4.029116923912719,g
-8.098355799327726,-5.755631287954574,-5.190642430767538,-5.386181475637767,-7.015401697430326,-3.2712857121833734,-1.8458079705262995,-3.9392167560257194,g
-8.106158631596571,-6.314616128284475,-5.5654781817834955,-5.250557012004492,-7.290741088257337,-3.7955175020385346,-2.018400267734063,-3.672765261829229,g
-8.250953443128429,-6.979159966201887,-6.002776128689809,-5.321672102251841,-7.587551221251516,-4.393254230551287,-2.2609915805471243,-3.4093339604382136,g
-8.623972343678622,-7.700735016010038,-6.499572517692623,-5.6764398346676535,-7.972310815385569,-5.173539337574778,-2.783801722704214,-3.400897933910643,g
-9.270224863081856,-8.39929121611932,-7.044230709181795,-6.28314658047567,-8.472816149710258,-6.144668494402749,-3.6624151051874967,-3.815033193772718,g
-10.237914110668932,-9.12520464184694,-7.684576501045302,-7.078319806227029,-9.11022653243079,-7.226952954802387,-4.800740850586037,-4.638860531226959,g
-11.521960119986087,-10.003469746878931,-8.499957411385624,-8.008823170316093,-9.887235814616641,-8.303583632848397,-5.998040643368617,-5.693022729691409,g
-14.409432316071403,-12.060207424034363,-10.541956061560409,-9.954202357273536,-11.468215667056125,-9.866168281264454,-7.732484630615436,-7.469426535591059,g
-15.610536052117075,-12.829955931275492,-11.41191142590976,-10.70314369920434,-11.882402977735023,-9.999190549746114,-7.946089972932637,-7.789661117793218,g
-16.492346468880577,-13.15782694977253,-11.8911015682995,-11.10245582434188,-11.817896072413028,-9.529862583370095,-7.625577822928797,-7.6560425052719525,g
-16.492346468880577,-13.15782694977253,-11.891101568299502,-11.10245582434188,-11.817896072413028,-9.529862583370095,-7.625577822928799,-7.6560425052719525,g
-17.03794121140875,-12.97329665801216,-11.900805519723118,-11.07844953032663,-11.282119067314751,-8.52590220351647,-6.838826069155147,-7.17807807507122,g
-17.33513073796327,-12.420711979542528,-11.576813361320799,-10.717470415161738,-10.481034515150002,-7.238740534640219,-5.764648505632418,-6.531330977475582,g
-17.57091057758131,-11.86177713463658,-11.218408618681533,-10.262317742128198,-9.735988758912153,-5.98968482161298,-4.627041397702844,-5.862324316564164,g
-17.904358922202395,-11.644949237941608,-11.102639946083732,-9.969209982306696,-9.304937085038091,-5.017318898174341,-3.617977554244203,-5.235892338199269,g
-18.338681699578697,-11.825824299376336,-11.314540379670664,-9.943321887081,-9.243603070092346,-4.397343857577928,-2.8532985157267916,-4.66042231310993,g
-18.779845569844664,-12.18027016654315,-11.754181422846438,-10.122836203041919,-9.43305161665553,-4.079196625827927,-2.3699448885807284,-4.156332874139131,g
-19.20357448591499,-12.489271076146029,-12.283824953129935,-10.404095432368644,-9.733176975286419,-3.99138742626437,-2.1510131088938484,-3.8006746752646734,g
-19.674848456687787,-12.718484876318177,-12.831473272510468,-10.738431310213228,-10.094794981677254,-4.120433582023068,-2.159483981013379,-3.7042727896489347,g
-20.191912665780073,-12.921000061836352,-13.366261877408917,-11.110185542902693,-10.536859846289358,-4.496155222842678,-2.355537561881858,-3.930163988618575,g
-20.596234864635978,-13.09296305948016,-13.834641110786404,-11.476810177567343,-11.054420062072449,-5.102033961665856,-2.6839979173872583,-4.414132120307621,g
-20.673704298754693,-13.177367428005706,-14.150048253175338,-11.761510281570612,-11.564831848940063,-5.806249296261141,-3.0565644594733237,-4.965206847372013,g
-20.29898247125923,-13.112404139867229,-14.22198511530313,-11.882476139930017,-11.925979541850458,-6.398037579444767,-3.370692592761531,-5.371256367630464,g
-19.482495286003296,-12.820045005434238,-13.987134699622695,-11.780222533357698,-12.004709960611935,-6.712420887596859,-3.5643914039275564,-5.536998941445321,g
-18.362248682900322,-12.239184866008854,-13.446809067230342,-11.451618211462428,-11.761660954065121,-6.734502552041519,-3.6523886587234635,-5.535959822777685,g
-17.178594123221867,-11.443050630103922,-12.692434843540916,-10.975956436444402,-11.2946104373713,-6.591652577061344,-3.701990629321881,-5.5282803282101325,g
-16.164350868509185,-10.651239978834578,-11.86495170956149,-10.47384118879152,-10.783418490039235,-6.448138668033765,-3.774547118421572,-5.618662416880584,g
-15.381805268465161,-10.04887789382886,-11.065281300836523,-10.011292577905433,-10.367828289236034,-6.398257043752508,-3.891638175678999,-5.776197675890133,g
-14.70063844417325,-9.644296998495715,-10.31937716996334,-9.562275011373277,-10.074808227668083,-6.437148415712963,-4.0472277772032745,-5.871288293077353,g
-13.976861713630978,-9.356429350146183,-9.634589335939017,-9.080794601702973,-9.857868746160964,-6.50935648198949,-4.236997446492434,-5.78531496233177,g
-13.210416410913883,-9.159868101553034,-9.049992105284739,-8.579471800554312,-9.67809832395948,-6.576298888069699,-4.470779207435628,-5.5046060300463875,g
-12.493913330345526,-9.055742378131514,-8.603126048640615,-8.111100928529309,-9.531595420333579,-6.644493876953973,-4.758858981292046,-5.13291173000808,g
-11.87307348848611,-8.96966938612728,-8.276167807008134,-7.700654253570508,-9.42470898481676,-6.739685628774742,-5.083265804798206,-4.8138649591058265,g
-11.320400846046503,-8.795445924369963,-8.008203140161836,-7.3282600886048614,-9.351864906270343,-6.859759869431516,-5.378266409317407,-4.618682599299214,g
-10.788587462961102,-8.51007568651946,-7.739767196397111,-6.954850188772338,-9.283301803603651,-6.954568321046205,-5.546871101515082,-4.486572000660489,g
-10.20347076681156,-8.141521753116873,-7.411493214718393,-6.522776260030365,-9.143265783742375,-6.948635497045496,-5.510963126245447,-4.265883978620109,g
-9.436644964746481,-7.643700890473954,-6.939955771274448,-5.946794877669022,-8.807296650431287,-6.776504258373206,-5.249191341927128,-3.8173910393575725,g
-8.385318485970743,-6.913531920308782,-6.247937675241945,-5.1598336107956255,-8.161047852064396,-6.39717383373745,-4.783254705797733,-3.096773066553846,g
-7.100981274533849,-5.939233439290321,-5.337342736956968,-4.191032668927342,-7.189297056867953,-5.7978717783190445,-4.139685320420835,-2.173892040099891,g
-5.797875973822789,-4.849969158242103,-4.323219611984874,-3.1885356855458795,-6.016047782557373,-5.021439912065768,-3.3524047259025522,-1.2074497043779193,g
-4.746041190241006,-3.8284936788027495,-3.407120990760485,-2.3708142750757077,-4.870997032852533,-4.210700907630061,-2.5168000781692266,-0.40285787494522796,g
-4.191875776371349,-3.0659091076165907,-2.82830973612779,-1.9629445227907667,-4.01932033026614,-3.6094727349329903,-1.8260104451619732,0.04192263936543594,g
-4.31832089435821,-2.7781588396187473,-2.7927908929766483,-2.132440817970153,-3.6767531809183014,-3.475562750770765,-1.522032221122005,-0.0026143316192910326,g
-5.148186150527782,-3.111124720075014,-3.362404471682113,-2.9023682903634316,-3.9130934023002433,-3.940131725770731,-1.77490050668198,-0.5526296987806909,g
-6.449493958995693,-3.9556202291447087,-4.372469646533677,-4.091915329594117,-4.59200354077904,-4.904809390696956,-2.5688953863505297,-1.5000959440302428,g
-7.8228476310131665,-4.940052178592298,-5.4865996236379555,-5.379067081144669,-5.416922593414133,-6.051198335263741,-3.67400396497005,-2.6344505223569583,g
-8.949603037269092,-5.676125542114859,-6.374047170046356,-6.46821528691369,-6.072144244128559,-6.972929425596118,-4.735278891174799,-3.6951737840680474,g
-9.752291659514437,-5.986239976044821,-6.866716806619671,-7.223774763766285,-6.360352883979303,-7.3711060719373425,-5.446950348894043,-4.457548755239696,g
-10.344226936951193,-5.911345132121126,-6.99977781964822,-7.683070320612141,-6.261370844582728,-7.203784892878554,-5.709622900524652,-4.82359181537038,g
-10.906650850878925,-5.621731395961489,-6.961105966608594,-7.990720758646381,-5.912596997589647,-6.68348413115122,-5.652703075339934,-4.852521513539661,g
-11.612038918437118,-5.363710471231597,-6.98911367929413,-8.309551627106856,-5.526165487645047,-6.10585548487245,-5.491693162697244,-4.689819718260956,g
-12.53364847399149,-5.348798551190952,-7.224999103743171,-8.710794767169666,-5.251151874387448,-5.623589862510259,-5.327911878303462,-4.439180958318675,g
-13.530903588896134,-5.553577646826509,-7.58846722257361,-9.088071110426668,-5.050249559440113,-5.135595158749311,-5.053185059351105,-4.077456192324038,g
-14.498319676732937,-5.393322520310404,-7.662913378155343,-8.889767922422376,-4.038852346363979,-3.1577330102629424,-3.326654633273442,-2.539758866376848,g
-14.206300839414634,-4.70425617790987,-7.151493223468357,-8.21585404233408,-3.040177686657802,-1.5457635562128154,-1.8250915017801268,-1.306616224045896,g
-13.67853530425533,-3.922487718046443,-6.558983962893564,-7.485976396617181,-1.9940538612394527,0.09325182426042034,-0.29418393760926753,-0.036203325939651164,g
-13.67853530425533,-3.922487718046443,-6.558983962893564,-7.48597639661718,-1.9940538612394527,0.09325182426042034,-0.29418393760926753,-0.036203325939651164,g
-13.244835549017221,-3.4271084690545193,-6.245548452576798,-7.043624715121072,-1.2875183882839238,1.2986116572667679,0.8237353029245256,0.9066674396175107,g
-13.094409493579002,-3.4292831667468007,-6.41939679428849,-7.069783748663267,-1.184403052831572,1.7958838260941108,1.2645664550400582,1.2532731061942275,g
-13.195511673247259,-3.8993063142554014,-7.012380324598977,-7.495896003058126,-1.671645615862019,1.6552220601478562,1.0808671806812737,0.9913481588641355,g
-13.312738667625732,-4.58527401989568,-7.7276029354748585,-8.064673635548449,-2.4819359237797203,1.1948272339755301,0.5477791510907801,0.3451049734835926,g
-13.154356119694375,-5.135324439363677,-8.241444363782763,-8.50795309326012,-3.282763125970399,0.7123913924265738,-0.07352630354473912,-0.4039104755833261,g
-12.624067315164528,-5.3533399104691854,-8.438112570716838,-8.739837478639181,-3.904275340219196,0.2719675804268295,-0.703451857944939,-1.0957589544069999,g
-11.950767045633844,-5.381933045188882,-8.481987707952179,-8.904364212939022,-4.424078669270492,-0.2901633694144099,-1.4171090651256784,-1.7349649480607372,g
-11.498920877662178,-5.552839090492678,-8.639663980473715,-9.20669334287166,-5.031126714843946,-1.1718458339392046,-2.2837983069930385,-2.3961602154269843,g
-11.419291929996223,-6.026892402755186,-9.007874695257708,-9.67483379134607,-5.7957871686331615,-2.393355729966257,-3.2298738418706647,-3.0906124700582955,g
-11.508302005449718,-6.636256217624689,-9.405778848013219,-10.088018585163272,-6.563500047533997,-3.7286859292920034,-4.035522040517127,-3.698552769784778,g
-11.388310936455758,-7.068031241366583,-9.512125192568188,-10.131321145304357,-7.055950630141521,-4.825462959420084,-4.463850272622495,-4.01905912498525,g
-10.772976651091934,-7.105710462295517,-9.091064627035658,-9.610070872638973,-7.063118444861071,-5.420055613977185,-4.419801285044454,-3.9044434762818114,g
-9.594522118708717,-6.688924717802955,-8.11950946864481,-8.545581514548918,-6.558622863946644,-5.479568436620939,-4.00337440436311,-3.3694478553974903,g
-7.994442688495366,-5.875151233339359,-6.76573960322065,-7.1268657742198815,-5.678110676194216,-5.163974461367099,-3.4064279405880384,-2.577737408956075,g
-6.241982757304401,-4.82599319656883,-5.2752899285995625,-5.593512999008013,-4.6150859683844505,-4.666306416966746,-2.758290958254715,-1.7258782713895318,g
-4.593579550487509,-3.754403322819479,-3.8450399797142234,-4.1240666863933155,-3.5228886880445254,-4.093887320001383,-2.082996468211639,-0.9439292052817174,g
-3.1710732514663538,-2.8032119235123414,-2.5667702158557697,-2.7906382092875623,-2.4851330682556285,-3.4802602563142626,-1.3976506752151798,-0.2906618722638704,g
-1.991435987992799,-2.0043856073655557,-1.4761727290612656,-1.610139997141453,-1.55573103349749,-2.86034969705704,-0.8098868745874167,0.19901342924074336,g
-1.1091605632557302,-1.3767530054427943,-0.6345094733696782,-0.6319893214067832,-0.8018747194536537,-2.294985871162372,-0.48173198090499125,0.49614300347527945,g
-0.6525954123276072,-0.9740441537085257,-0.12425385124679171,0.0510615648609992,-0.28151681585045296,-1.8277986463287128,-0.4978359578589636,0.6000303959592276,g
-0.6816007685485456,-0.7736265359336637,0.044408133446209676,0.3871847666603365,0.02284260013935525,-1.4456556368790823,-0.7828731507588313,0.5526165291466943,g
-1.0720131613973032,-0.6048458276764388,-0.012565941229601307,0.4322704364877441,0.21975641699205922,-1.0912859611392132,-1.1448566449866378,0.422600950732564,g
-1.5928732537378127,-0.29186200939410156,-0.11792091603500716,0.3156231320314976,0.43623782797956434,-0.7088260464026371,-1.3960766488037692,0.2811224243025708,g
-2.055920411243993,0.16919254891607755,-0.13930416610933474,0.1608576970699714,0.7326696953396793,-0.2819363986403235,-1.4576415152980768,0.1853211262855019,g
-2.357061947107574,0.6522583685736392,-0.03118870113444936,0.049662644843506645,1.088492767316978,0.15641067643956869,-1.3839758181944437,0.16332346365613887,g
-2.449893478429633,1.0710901823419168,0.1799497285008498,0.017346267547795325,1.4438350129098523,0.5454061372938674,-1.296169840107024,0.20193612350286835,g
-2.3698116806305842,1.414960790594122,0.409331108572162,0.03348519900042479,1.7326615293507852,0.8349685129974947,-1.2745521832147704,0.25275239893967355,g
-2.251647918063674,1.6593667557398448,0.5373225489267102,-0.0006057990620009557,1.8957090987542315,1.0095875694147836,-1.3012328685132,0.25883522215502036,g
-2.229943386151904,1.7609568539557319,0.4765970136221391,-0.18593139707463804,1.9017538150815638,1.077852975460882,-1.3010461332696412,0.1858183558841667,g
-2.312956248565316,1.7387571293581452,0.2342201475697318,-0.5410766963100363,1.7673439971892653,1.0477598404502575,-1.2275387471703667,0.044256496887111044,g
-2.4079808421593247,1.6560744920450372,-0.1101927247419053,-0.9971052112728638,1.5372989418391643,0.9193503168890516,-1.1026700568528867,-0.1081233163496083,g
-2.461392262626386,1.5097959141751585,-0.48867874309025155,-1.4700105362398899,1.2375539157455286,0.6926761133899737,-0.9916491305242277,-0.2035475468123349,g
-2.5181033972072147,1.229099252957096,-0.8941207310350421,-1.9175037397790748,0.8567047688397388,0.3692811669764426,-0.9663603732199026,-0.2354252283874417,g
-2.6578460752394006,0.798702061427487,-1.359817714804724,-2.338465713736414,0.37465452251093756,-0.0481089806448356,-1.0863717288610903,-0.2999318717557206,g
-2.937853865491104,0.2962311643026291,-1.9166219953436756,-2.7539209067874815,-0.19922022624515714,-0.53511304369924,-1.3725605736925206,-0.5390854531308515,g
-3.3829160052029197,-0.20698123170771282,-2.5564076674700438,-3.1880079547842137,-0.8081379869804323,-1.0174377208911953,-1.7681167505681228,-1.012120549183524,g
-3.9459332825049485,-0.6888963461064321,-3.1986599555876114,-3.6314620505846746,-1.3512916500360792,-1.3839740307542283,-2.1370952913541204,-1.6174472285931507,g
-4.471139312190689,-1.1030688192162452,-3.6993019432223178,-4.01985662830143,-1.7198806190968479,-1.5569437248114335,-2.3345678149180342,-2.153517228779526,g
-4.789516700282135,-1.3763697561345887,-3.947775587029637,-4.286910565404762,-1.8723952105620676,-1.562632132166367,-2.3027081276407855,-2.4711508079722098,g
-4.894023067799116,-1.5358993086484118,-3.9824224409634064,-4.4521910252779415,-1.8895389325382026,-1.528300245530328,-2.110695182978482,-2.582883050474133,g
-4.9584711908515775,-1.7374192527298309,-3.977614009848716,-4.61739379409339,-1.9221463341028002,-1.5923212237713014,-1.9025437977577038,-2.637162583086789,g
-5.14424463615981,-2.0832562692585883,-4.08487806604613,-4.849345799448076,-2.0512984776681074,-1.790073135509322,-1.7851303454364467,-2.778511188058885,g
-5.7180848819154,-2.712529828748564,-4.451125290936287,-5.206846888402508,-2.2022709675730434,-2.017444166856441,-1.5604192593992072,-3.1315676487300004,g
-5.8809413450827766,-2.6842231955449494,-4.390710656610845,-5.105343039036952,-1.9271616240437859,-1.6684000971688828,-1.0747645716480427,-2.9287984583069013,g
-5.892367035255608,-2.374298105035547,-4.025138633521499,-4.783490380755735,-1.3664716627778541,-0.9491358110572484,-0.1950253593134624,-2.284867597002702,g
-5.892367035255608,-2.374298105035547,-4.025138633521499,-4.783490380755735,-1.3664716627778541,-0.9491358110572484,-0.1950253593134624,-2.284867597002702,g
-5.7262843311960525,-1.7685311382750328,-3.357187440873792,-4.291619735920943,-0.5902609873613812,0.002316146828920074,0.9640836077511643,-1.2894466320449556,g
-5.3578592046196345,-0.8560363332655818,-2.447978335950506,-3.677345868611728,0.32761989988733825,1.0305831851886236,2.185570588375452,-0.14534803797442314,g
-4.793588266084765,0.2925944344441259,-1.3812435012001574,-2.9609293141063455,1.3425095259069217,2.0673144509731434,3.2940557824907954,0.9778097656925521,g
-4.078232526629039,1.5280130604584774,-0.2457907858335088,-2.152418668041838,2.4058068634309535,3.104544812892518,4.212663612372225,2.0024517184922375,g
-3.3158958949429467,2.6759287260208593,0.8381563320742608,-1.3157922514208444,3.3994589093099576,4.083294389698362,4.912851118921784,2.887131073756852,g
-2.725374869203184,3.523006537363444,1.6757474886168935,-0.6340133834454025,4.112051518890159,4.841949057146565,5.354613746378954,3.5547431353977643,g
-2.600886537474629,3.8171596512228674,2.0323957683501415,-0.36722018654280986,4.321546592930487,5.196239167378362,5.489744393661501,3.8958820047908267,g
-3.1044383341611774,3.4237575958796818,1.776651899426848,-0.6763027248408656,3.9502450499256283,5.077108223466939,5.30467427048779,3.840716810721524,g
-4.089069133237988,2.4957623429675326,1.001553532051916,-1.4657515433008852,3.148700577738908,4.59976934784526,4.848197291523717,3.430189509758957,g
-5.193642802186873,1.388102563460166,-0.02061185422252443,-2.424257373220571,2.2055607936198656,4.008212908011638,4.227006917276561,2.827269750305632,g
-6.119693559637057,0.3798421905529474,-1.0105356247334432,-3.2341974378726035,1.359714598002784,3.5413533917581814,3.578750291998689,2.2518523672062143,g
-6.7798010993801086,-0.4526875885843523,-1.8084900387731335,-3.748729192869819,0.6919079640787159,3.317053382601962,3.031902013128022,1.8724617088703959,g
-7.217579788623271,-1.1109720144857511,-2.3729992813652436,-4.0088819319081725,0.1687940130543047,3.3092373506445227,2.668099366651528,1.7266501399510066,g
-7.478972544105419,-1.5507127951142787,-2.716834563477085,-4.145781451511091,-0.2469111143119087,3.4215112295624204,2.508869108774655,1.7300940101807214,g
-7.5613685852134696,-1.7120283197230264,-2.8487386413609124,-4.2598149189524115,-0.527559114663003,3.5886780766967754,2.530385069110096,1.7645696414460315,g
-7.388775370871189,-1.5558778988488344,-2.725162212054021,-4.327028200989147,-0.5768658787062181,3.825613530769856,2.6893873365138554,1.7732784002596624,g
-6.804156953147805,-1.01301160274914,-2.2351272412692818,-4.18687106068127,-0.27288368818866493,4.200069786483219,2.9502412191215504,1.7999940343487437,g
-5.670979034866939,0.0048927993137654726,-1.2692561549655486,-3.6552364449818056,0.4560873035213605,4.771176344096331,3.313322559365981,1.962125558465369,g
-4.041192059906587,1.466348664946879,0.16279587055046782,-2.6881622761384567,1.5640698099513917,5.5474741834495696,3.8281213935542375,2.3839843363551365,g
-2.184299966277243,3.1561347789325445,1.8897045441118245,-1.4340890856823276,2.8932274196277303,6.481994393979541,4.561245159945601,3.121922498303558,g
-0.4256975864642956,4.808240186232945,3.6540619251706845,-0.12778881397026792,4.25313244870741,7.488285012238674,5.52482625049251,4.1150503317219975,g
0.999595196604055,6.241940470832971,5.211607335872478,1.041389856290537,5.4925964350017695,8.462029688038736,6.626814729781498,5.196459030101573,g
1.94464129580022,7.334355962207553,6.380558878627186,1.970857749263106,6.517549781424597,9.310751189521037,7.704784892462873,6.1747332072840875,g
2.334121030197544,7.9836817291337,7.084219656867671,2.638135127929422,7.30121708025614,9.993655004992544,8.631448487492355,6.944670951348778,g
2.249150346175845,8.223228427403821,7.4134910785829025,3.1174186168937394,7.91789264202774,10.549942743604664,9.405624403202683,7.552377017827206,g
1.9688342849393314,8.308569054685249,7.617808946056478,3.5727111883345146,8.534985950483316,11.080506065025808,10.14429194930521,8.161262773287547,g
1.8156296177374678,8.553407519340523,7.9571400579071305,4.161735600384034,9.307380306233052,11.674292388325032,10.969616679214791,8.932030006606778,g
1.9398718870504243,9.0687128623408,8.522508090697736,4.917517403156184,10.250335924882524,12.322782325191724,11.874463310527084,9.894322874340634,g
2.2791024736219763,9.726512243753367,9.195342279621535,5.731445190312746,11.222691435898076,12.896115670624322,12.681262666502603,10.904588198984827,g
2.68683698851102,10.345666884949475,9.770749835632428,6.446067367901951,12.040738186240592,13.222269907793608,13.148085814736936,11.733250536450656,g
3.0539616119333246,10.83337300131807,10.123133924123831,6.961582336020126,12.616265099974132,13.223295658351777,13.150542469763696,12.22488999049307,g
3.3586580864308857,11.188738523153049,10.295492460005097,7.288823920610793,13.008969954210375,12.990188496201892,12.780305644873133,12.401008020592206,g
3.680204219793322,11.479428129381851,10.460695641450291,7.533358589719363,13.358211436463927,12.707811248474252,12.255399440693498,12.40996646119523,g
4.131891213217403,11.793996150072896,10.75756678334143,7.7975363529108055,13.730563548119695,12.474035160256452,11.709918153017936,12.36475547864628,g
4.68141448642797,12.090203029565425,11.098739066640876,8.036956155359142,13.987433052083208,12.170865689456544,11.05435779791136,12.217659713013884,g
5.036132373383009,12.078904662291365,11.138700618305963,8.010077840749457,13.8093720592011,11.517052867313641,10.040705912751335,11.786811971447934,g
4.805457449739821,11.392105270815552,10.500163913391138,7.429349604849932,12.91535828540222,10.281703373910222,8.487818311769198,10.912021766137162,g
3.8337662813139497,9.942546040116346,9.093750772304452,6.21016824076192,11.318373579094606,8.501772025974493,6.490366051724865,9.613215196501393,g
2.353968470805069,8.061223793490898,7.230769773570508,4.575006550180342,9.378474271789852,6.528532015397262,4.441196592440756,8.127648188327209,g
0.8166652132866241,6.242254992942486,5.41543561806372,2.9069989827280756,7.580567828103886,4.83843175788915,2.8200541368022933,6.785273665462574,g
-0.3980520665840343,4.7955620681331705,4.003353750918793,1.4954333465012855,6.215298854945695,3.720772719668345,1.8741738519754372,5.795632805131713,g
-1.1459050432183056,3.7352061000205046,3.003999664034116,0.38746484179396007,5.2198508666962145,3.0811112019887887,1.4350658038493476,5.106026502148662,g
-1.7375981106032818,2.0706375690461964,1.184068147108364,-1.5185209878073225,3.1820547880423597,1.8036451222240568,0.37286850871735483,3.649225245179898,g
-1.9211012303222652,1.2579010712538965,0.09845639310347572,-2.437871231042747,1.945511037411229,0.9248531577518294,-0.545178408964597,2.6904936700397113,g
-1.9426250217846384,0.69791907141675,-0.7727863885029389,-3.0479876611113617,0.9524401652743769,0.3471179515901608,-1.2491993988548755,1.8640475828235092,g
-1.9426250217846381,0.6979190714167498,-0.7727863885029388,-3.047987661111361,0.9524401652743768,0.3471179515901605,-1.2491993988548757,1.864047582823509,g
-1.5007464498827072,0.7589958519065102,-1.009195149474467,-3.013151117303894,0.621450131266811,0.5562542036596366,-1.2369360484294187,1.4898584244147943,g
-0.42386309757840995,1.5655018821168813,-0.4590850940500685,-2.2242894744831543,1.0758580703846714,1.6910817368150113,-0.35151981300445534,1.6836517809899387,g
1.1271907455143437,2.7978202936728813,0.6057368882418387,-0.9279341043475654,2.016283063349581,3.3846185711909698,1.0673739283648969,2.2529558090858606,g
2.7759754313736265,3.9229837464708353,1.6808184040206118,0.4302705658439409,2.9213714558872934,4.959159087039735,2.3748956871954494,2.8027759538432173,g
4.199713218543455,4.599541693439666,2.3704640199901945,1.4858802957150279,3.390356676893865,5.8301218622485536,3.0091571241606516,2.971916411188317,g
5.265766247352765,4.821887100408938,2.58038611200768,2.1088028789405997,3.3420771506040294,5.8254814702944095,2.8015637642623483,2.636726574074056,g
6.008672470367211,4.767702569313752,2.4706724882385234,2.366291938259949,2.9646331205031298,5.204539856888479,2.004119845337417,1.9470430316333922,g
6.592625160075423,4.638842212409018,2.2973630740327087,2.4149832773688606,2.5310829750830295,4.403838305725983,1.0529849606383936,1.1912684324787524,g
7.276421175233874,4.618832258299518,2.2801131540916133,2.420914541720213,2.2422747233991247,3.7409100285242607,0.283293443018381,0.6178778549373825,g
8.303578769196154,4.833871140887486,2.53826081404949,2.5116879626561475,2.1678034928849286,3.2900835015755936,-0.20105056311889208,0.3431621943020856,g
9.774382446970664,5.3002536350115586,3.093015591095045,2.7535476626978297,2.2735724196562246,2.954040934030012,-0.4802849761696333,0.3611089244838706,g
11.635129760060583,5.969476263895777,3.915811016819704,3.164394800808308,2.490401594823006,2.6057604889290844,-0.7063946594572139,0.5881171399315213,g
13.768857540910343,6.831185551053403,4.9723458929876605,3.744478719128078,2.772492809647855,2.191544491858766,-1.0067782844285846,0.9066850207046844,g
13.117690914892929,7.91256539798353,6.23495196318894,4.497964321804324,3.125657349832708,1.7770947282898384,-1.4025433431731724,1.2300743536363066,g
12.282975818459898,9.206310241387017,7.706136164998066,5.464726421514696,3.6281410576167317,1.548913640764543,-1.7468274387356941,1.5839705424913304,g
11.408917298792856,10.708743792307564,9.474997739877315,6.769634906441321,4.446016724594903,1.7566826986926558,-1.745768260222335,2.132435446176953,g
10.650443261640913,10.377950853974415,9.384602515299104,8.603721113150932,5.779486441032632,2.59003247966749,-1.1027101075538053,3.0860660555224793,g
10.097365062907922,10.271582463651873,9.568723148962631,8.826165916931696,7.703736815378283,4.042272470587822,0.28143638984043023,4.532957052872955,g
9.664825847588942,10.327463393656826,9.92486462952395,9.28788490132933,10.013147191906217,5.8521589442170665,2.1913233579029248,6.315523265931109,g
9.0820529223537,10.326625942650725,10.207921113468139,9.74034734164464,12.246740788206864,7.582948757216018,4.162365483052249,8.055374975257664,g
8.027537932717001,9.99827974376763,10.116377515731262,9.882586920277392,13.922769677042988,8.815208956385888,5.707206314550161,9.32885858277453,g
6.2989298111248955,11.071619804215814,11.490150840139048,11.297323448696165,14.794256062431852,9.343827390087249,6.564455383255526,9.887479225325773,g
3.8899468196804725,11.353410458952116,11.893699972209777,11.93528680349508,14.912567673694403,9.238577075748207,6.790954963575565,9.766112242585928,g
3.89687523213122,10.9812701616885,11.56175761893142,12.031412210801788,14.472090588536133,8.709714655161795,6.62001555809898,9.187909337125038,g
3.84330071554282,10.060872528795953,10.701223875840638,11.752519824309667,13.595935087748279,7.889551074369956,6.211199160900349,8.345998870210753,g
3.7433574859379433,8.632239744114292,9.346306473966767,11.075830890075363,12.250021266530574,6.738693046720695,5.531465365427955,7.2671077008699285,g
3.611179759339264,8.834470646523666,9.7452325206843,9.8728870425466,10.353616299914837,5.173048055201315,4.4756645409305476,5.882680101692929,g
5.885166088477786,8.790708012909848,9.885120151278024,10.373144582765867,7.984676184943895,3.2751356295509253,3.0757412263184003,4.212118933820625,g
8.097515897943342,8.722108762593113,9.983957205035205,10.811767736154911,5.474996366414321,1.3562155456903873,1.559025517369611,2.450121691878637,g
7.947699326160633,8.872083536110772,10.288278359873722,11.427112058663665,3.264535272040972,-0.2123962925306307,0.1954839134063823,0.8692281461853366,g
7.810619256529295,9.353630745885813,10.914451081491576,12.354326388915661,1.6166499421819602,-1.248379608728765,-0.9005583717648212,-0.35565840776287344,g
7.691853388012371,8.13938155498511,9.71451831841696,11.74472008102721,0.4634441041239038,-1.8630436023962111,-1.8196075309274378,-1.234656075309399,g
7.595021595158633,7.148848225557769,8.885995669543357,11.441560108603541,-0.45683233326548367,-2.3286096247939834,-2.718142164043029,-1.8940481909958595,g
7.521785928102595,6.2128153671304265,8.202826139636718,11.207185518736061,-1.2988002067288453,-2.8164033742369132,-3.6180940712511442,-2.415834639071953,g
9.86766565339567,5.491879688330203,7.706700627976213,11.06417673736507,-1.9315450507649676,-3.22597592553904,-4.323696528783328,-2.722937689288924,g
12.26350323137948,5.304454231664002,7.661840346318527,11.256941351482485,-2.0356620039949407,-3.2631946809787222,-4.5480435271533795,-2.6206889640878654,g
12.259467036154831,5.853451862122692,8.312814295389098,12.027598949742366,-1.3723622970607092,-2.7169693033514184,-4.159630310633882,-1.975380068495895,g
9.852493780908393,7.089876680718932,9.654773126609877,13.405244071657853,0.004801053213383621,-1.6925127318166844,-3.3251561565782906,-0.8682739901028607,g
7.516765112637624,8.710912060997218,11.380048149358583,12.966023610400345,1.7544416984855054,-0.5796039564872781,-2.399809063040618,0.4323105521696517,g
7.553735314388308,10.27041760903867,13.041606858913358,12.370873265291802,3.4586792895147283,0.22503188504943994,-1.659935324080972,1.6600471798744756,g
7.583969274114459,11.424300306122339,14.321313365912971,11.481835674775587,4.879605360778658,0.5958809253455418,-1.1264259891607586,2.7177839136305773,g
10.000194880448923,12.15265070673382,15.182997971415201,10.352858925578094,6.055720734015186,0.7265462678432612,-0.6199044221929025,3.676201514795703,g
13.79272627534038,13.186039246989898,16.16964283726791,9.794575243362699,8.25367622609763,1.4127491907614602,0.8878419930240137,5.582310396479413,g
12.76152491770514,13.532768564252581,16.275165529170973,10.04532400623415,9.179738848679024,2.0938938382877743,1.7902699480384705,6.384176885218216,g
11.363956877524064,13.481936522718305,15.891542685427936,9.735802244451474,9.655036714786586,2.72770478996934,2.5538047343731183,6.860103349637503,g
11.363956877524064,13.481936522718305,15.891542685427936,9.735802244451474,9.655036714786586,2.72770478996934,2.5538047343731183,6.860103349637503,g
12.152548465512231,12.882342544861032,14.89302203160016,8.792839398486183,9.454624668621614,3.043110031887888,3.023131767144411,6.902141841098791,g
12.81858075930287,11.711469255837642,13.288141677480672,7.26007926772351,8.51195252439594,2.8848573323155406,3.125093475663802,6.518790656453767,g
13.409116824544677,10.008225556125828,11.186050564643079,7.421065597468702,6.913480358307863,2.2411172142797726,2.846935365589392,5.782604887532074,g
13.931300488357886,7.89778940735169,8.758994588008736,7.373529435248534,4.85437589278195,1.1930123835476558,2.206400500142229,4.74691294337361,g
14.434031082290257,5.632037371841293,6.223587700611278,7.16715008316533,2.5903296937978206,-0.13775330448603182,1.2627194070400587,3.4292531171610596,g
12.598517116370308,3.4869459129303677,3.8075591657957815,6.944868198886779,0.3779631422130473,-1.6137536302010609,0.14223483482806742,1.8761024467394016,g
11.190935182703726,1.6154497888741541,1.7068601377318564,6.8794107812801615,-1.5832436335157185,-3.110615377078531,-0.9927922949033228,0.21896980692459628,g
10.155612477366253,0.04711269512017804,0.058412375253747054,5.3006888642451795,-3.1781481887887173,-4.564313698745432,-2.036953278560943,-1.3582235207223605,g
9.436023091399303,-1.2211907866806386,-1.0809766481900231,4.3896661344950605,-4.370172680462696,-5.98556555430924,-2.997932688271053,-2.7074078929091767,g
8.971317609384146,-2.2144933044457007,-1.7508008047018464,4.089485005578804,-5.174319424708301,-7.390022253341165,-3.9324957405665146,-3.761952408232756,g
8.678421798732563,-3.004523600355994,-2.053844361808148,4.237604945153206,-5.608952444296502,-8.68947318569798,-4.817009861714265,-4.503712947314607,g
8.508423480799971,-3.631600587580673,-2.0714898674507864,4.687938004417349,-5.650493817952624,-9.663927012301475,-5.497504916882217,-4.910527305090817,g
8.474904044782441,-4.020535311552592,-1.8237253357750458,5.376488072046595,-5.253075448502081,-10.07361627535019,-5.784144891501808,-4.948933025632351,g
8.539995651154001,-4.081436198157057,-1.3385119855489744,6.245600847033564,-4.442154180085141,-9.826119268421351,-5.5982472923563895,-4.608052116662085,g
8.500606918033991,-3.888333885565216,-0.7358908700190481,7.135192787949805,-3.3770982340184927,-9.048272596339785,-5.028401692976763,-3.9265354360808273,g
8.09194306267739,-3.650924021058349,-0.19471331592989188,7.8098049233455,-2.2829751814426316,-7.999958578508232,-4.251775962834562,-2.9853048169636387,g
7.221204317262357,-3.5037154329497797,0.16138602246076017,8.102890221264154,-1.3128680861199034,-6.914280732471548,-3.409259403061583,-1.8826606053438382,g
6.029816483560671,-3.432574636202837,0.3032551954687878,7.997911644106331,-0.5010484995129003,-5.906967426862164,-2.5570360415225464,-0.7269009936395079,g
4.717700557889182,-3.4264720088793252,0.22392352040906238,7.566939018998663,0.14953387360043607,-5.015662457321263,-1.729129398500027,0.34075991092127245,g
3.3767343678589916,-3.5775376098935525,-0.11899371065736011,6.87759890071772,0.5728645719947358,-4.295800918459131,-1.0238332580708693,1.1274293867212843,g
2.0025623630510707,-3.9708696700208512,-0.7633715340398136,5.976323212551766,0.6557197110514333,-3.8516929131317816,-0.5956821058818613,1.4291675916724937,g
0.5800875635237832,-4.569081571638327,-1.6786298721624398,4.915403475201272,0.3288890468392044,-3.7674295782641067,-0.5395601954122751,1.1333684579103898,g
-0.884256048656969,-5.2748727551303825,-2.772012271875174,3.7546989950879945,-0.3763556891925138,-4.025446423743434,-0.7910494240453463,0.29816322643921633,g
-2.351201814847098,-6.041129791908626,-3.9498974039160233,2.5458766975301987,-1.3532532557185535,-4.518890399946609,-1.1717718278831204,-0.8838154806459168,g
-3.730378106260126,-6.866992246160441,-5.168348035226848,1.3281062313627383,-2.4931273203262405,-5.153423080803876,-1.5539488018652077,-2.2204209284968615,g
-4.928567894791807,-7.759094579466476,-6.445321425338439,0.1211591657765855,-3.750568111924239,-5.92399251543355,-1.9768867411449051,-3.6275829764686804,g
-5.950800974011202,-8.752402303609795,-7.824660339273905,-1.0826008843397743,-5.145153554995918,-6.874318025200344,-2.5895868237038795,-5.109607509629287,g
-6.894716984713403,-9.883713257669228,-9.289757547843779,-2.284349237501197,-6.679945617821518,-7.978047743255216,-3.4731413753933347,-6.646185383748703,g
-7.804997698223623,-11.06282877359611,-10.697185939806214,-3.417467482239352,-8.247197216524238,-9.07177837696939,-4.514878904695855,-8.107828762713924,g
-8.598038374528134,-12.046762993784382,-11.84091219798032,-4.356336832036554,-9.640483768898907,-9.921996895306505,-5.450924165364413,-9.279977448443749,g
-9.188941913024653,-12.652456749402168,-12.626936814257329,-5.022906673132356,-10.689238188256857,-10.375587355158881,-6.040835465921358,-9.971649236674642,g
-9.63608759127317,-12.9596135600493,-13.168439589311944,-5.4643000805530875,-11.376203078204853,-10.461554569802432,-6.231052010247508,-10.12072374900957,g
-10.08186343511609,-13.207999046912477,-13.670067210994052,-5.787856042043316,-11.807082772058976,-10.352556738628332,-6.176410244896302,-9.818579430605642,g
-10.577864899653957,-13.521805567913646,-14.21833519360572,-6.028475625833474,-12.077372590583057,-10.216087262853542,-6.10215486894546,-9.239520666120008,g
-11.035143077766552,-13.823263890000865,-14.702622277644306,-6.11013368407845,-12.189032679428692,-10.08136492072276,-6.119909513037941,-8.533476192032849,g
-11.324579476278945,-13.982952392196285,-14.926500835599375,-5.930019385175215,-12.082825242988758,-9.835267895079294,-6.150097121727823,-7.765762863887832,g
-11.36439619464317,-13.944243961505617,-14.773614870436925,-5.4536539090915985,-11.717192516020978,-9.344617258046899,-6.0046443213539025,-6.933896804807128,g
-11.137739401768288,-13.71094217450459,-14.28823066975149,-4.74223807074039,-11.10984384917477,-8.588636981788671,-5.541806224716779,-6.015582425387147,g
-10.70865333470074,-13.329746390342086,-13.640453953206384,-3.9295610346947485,-10.32778871180061,-7.687538170877852,-4.7650350412828875,-4.9959155163415145,g
-10.221496320704038,-12.9044130336389,-13.013764019699034,-3.17398591871219,-9.449531715534722,-6.8214479081689605,-3.8175533897038214,-3.8789465222160744,g
-9.809217284280225,-12.52490063536896,-12.481545446541663,-2.5870206999785985,-8.522320227772008,-6.122625392152541,-2.90506023605671,-2.708902971581991,g
-9.481353513261626,-12.146677198908689,-11.965444162572618,-2.1754723579848214,-7.543175656771167,-5.612598752168888,-2.189194941949236,-1.5791127108771987,g
-8.74324971344285,-10.877972894400997,-10.489761957217985,-1.5307117078012598,-5.345656734567667,-4.740843271021745,-1.2754933240650546,0.23384885866942162,g
-8.29011800987158,-10.014819617466337,-9.533737963709056,-1.1508425189628286,-4.174210371288783,-4.138772355019096,-0.75820697870233,0.929512989623678,g
-7.825462226066676,-9.18934891421526,-8.612288406299744,-0.7369707051035992,-3.068751182993295,-3.4571468567312493,-0.09511049583080813,1.535552465012988,g
-7.825462226066676,-9.18934891421526,-8.612288406299744,-0.7369707051035993,-3.0687511829932945,-3.4571468567312493,-0.09511049583080808,1.535552465012988,g
-7.38000013382312,-8.522170815770167,-7.896132297394665,-0.38320830634328773,-2.1682336208267503,-2.926316005412806,0.522613492441047,1.9837435560221024,g
-7.028015187007165,-8.124381611660237,-7.516238814064357,-0.22986582675727507,-1.6258434082095803,-2.8153730404932817,0.7675280243467257,2.1045734633392086,g
-6.865198907782782,-8.088833781265127,-7.499158526193145,-0.3581953818172447,-1.5260265739792604,-3.236827088141728,0.41288936154000744,1.7483535091438367,g
-6.868711498728144,-8.35108008777064,-7.704443797879911,-0.6615914475966902,-1.7804606913635799,-4.028702986151176,-0.472469070004646,0.9330954817314538,g
-6.8309989977889085,-8.631096298439061,-7.856423533400365,-0.8485737636068322,-2.118389727602765,-4.810604886678786,-1.51934254033107,-0.1006422103860917,g
-6.495630570676129,-8.621609594091044,-7.6962739735323185,-0.629187379481708,-2.226140162350835,-5.189943209727372,-2.2573439537207594,-0.987370690692053,g
-5.744847239637498,-8.221909035945302,-7.134003461579169,0.07390361505777807,-1.9357648083323142,-4.989503521677019,-2.394436929174772,-1.439521925348908,g
-4.647125398841827,-7.5473125542887445,-6.273883952159131,1.079689379908507,-1.3090777735781547,-4.341894264498019,-1.9877814633411603,-1.4164427762736775,g
-3.393393729613821,-6.778713898682386,-5.325722820338921,2.07965923417669,-0.5684978163017601,-3.5785718591314244,-1.3780963191813234,-1.123710867069623,g
-2.2319495490511976,-6.07643838870556,-4.493169059242385,2.8164316733981627,0.05273729952422925,-2.9946031977390724,-0.9354394755299433,-0.8366660447124357,g
-1.381260368138625,-5.561692023744822,-3.8865066636156795,3.2043741662212133,0.4412803690954896,-2.6743680862848147,-0.8193843140282979,-0.6968730750267345,g
-0.8942750990954146,-5.249667195155472,-3.4785908340653378,3.3480086000547487,0.6446319437325408,-2.5085258017872953,-0.9352292231527517,-0.6507090035166825,g
-0.6120710168481703,-5.013335408935158,-3.1453814660939576,3.4409484407744557,0.7955532239208858,-2.3592982535284235,-1.0846289069744204,-0.5582178600110989,g
-0.3177274262505755,-4.717963511076009,-2.785698727363002,3.6002979143493343,0.9738956995574618,-2.2098011349083064,-1.1521429647356711,-0.3486993117526457,g
0.06488432737166976,-4.391632478339875,-2.4083731146905953,3.7830911986257276,1.132257032589104,-2.1757373384487986,-1.1799882465155371,-0.08564300615753666,g
0.45679133478039746,-4.178477359695139,-2.091185309298869,3.8728138649885606,1.1607895296114266,-2.3977062368865627,-1.3074337709851696,0.09062623280515478,g
0.758494283280266,-4.133809683799362,-1.873073352530676,3.8306511649472386,1.0153689071874297,-2.921320941408781,-1.6470346509306206,0.07499469874179417,g
0.9264417234847379,-4.154075660158108,-1.70979517044318,3.7405713491605654,0.7730021229489814,-3.649485266211939,-2.1831371707290006,-0.12235728666636403,g
0.9627784353843392,-4.08859566287945,-1.5040031993295127,3.7392439537807816,0.5873257932483911,-4.374774010758286,-2.747289463824602,-0.3735548086820299,g
0.9533512316176195,-3.7981381673795793,-1.122237100146879,3.960409389218392,0.6273498130983107,-4.849652582128932,-3.0825541874400186,-0.49857282231708694,g
1.1341436271139484,-3.0978899503832964,-0.39101867707728416,4.5394608052831575,1.0447814214301459,-4.855237464656182,-2.9616940636641607,-0.35150612782728186,g
1.8063985879270306,-1.8001876708809654,0.8419552018386229,5.5885788831567575,1.928378663743595,-4.262011844796637,-2.2972104308628416,0.11690527987793287,g
3.0993339423162825,0.08132584189540867,2.5751580980622086,7.099954841262553,3.227763424772757,-3.0927651885932526,-1.1955633610806955,0.8318306563251877,g
4.826105102099854,2.2260552439522643,4.575270472130652,8.873995816206962,4.715944523897331,-1.5690179271074272,0.06158892046532731,1.5975462521456412,g
6.582503541002734,4.167143244044345,6.448900172593286,10.568523522884025,6.054595430498088,-0.08028666151239428,1.1100462084055387,2.1455421121328726,g
7.961098222294251,5.529928380234366,7.8116125776678755,11.838094101513626,6.930160422356499,0.9595509741863377,1.6466174985032058,2.2396443184421946,g
8.711625365195584,6.126874595522974,8.441421021044627,12.4704151251517,7.1751252831129975,1.3002633424126622,1.5515990232367813,1.791813918405116,g
8.827386860758644,5.95713687493388,8.356143908925933,12.46501534503336,6.820211493534018,0.9497634379846638,0.906622716049991,0.9008183070824023,g
8.556116570601471,5.215313968756513,7.794831799026275,12.026364411440667,6.0668773248761445,0.1090434416145131,-0.09342433768494351,-0.2159897974831762,g
8.264990686549027,4.230343417916933,7.0974057187694655,11.452881488727085,5.192518219100885,-0.9734243130463556,-1.2390351268175341,-1.3281283267720043,g
8.19912240868896,3.279837895134965,6.536531738930719,10.971690433173324,4.432628199030627,-2.1007460028662504,-2.338765127927643,-2.254337149943597,g
8.347940733975118,2.458602066476951,6.212572905571106,10.639095673406349,3.905856620976248,-3.143029851119215,-3.2182753216981155,-2.8811630387497855,g
8.537830786116153,1.7521794968099882,6.066538983314657,10.370349302495839,3.610200485685057,-4.024655549751783,-3.756507670586603,-3.1792640536825765,g
8.599850144732187,1.1649954189805893,5.9566122091676,10.035036891781022,3.4598181001979826,-4.725853864306298,-3.9464036452391746,-3.2130057704500827,g
8.43620349576377,0.7065131232421327,5.735904706657207,9.534544654747105,3.3343755124493173,-5.277230575729131,-3.8968758155098264,-3.1026300495283987,g
8.031261649137141,0.33640270768898267,5.337487006219859,8.861186470555738,3.1503884163640987,-5.715268355814321,-3.7430601570189075,-2.9433500359647127,g
7.5053611576399915,0.056060191136737506,4.8561714318151505,8.149024984909074,2.938907848350157,-6.016003270773885,-3.533664159620758,-2.744834042250921,g
7.117503201153442,0.025436419086184613,4.529531405978792,7.645733057389334,2.8471428476022496,-6.067747738493149,-3.195122211673561,-2.444533289753376,g
7.089740832620988,0.44492797926999145,4.5578435067152725,7.549698772631464,3.0093680322387333,-5.735897164137332,-2.614418448352032,-1.9907923621188037,g
7.381638320329225,1.27866092513105,4.887658363023797,7.815926662506195,3.3739858704544154,-5.0054620793749915,-1.7915875148744234,-1.4444132383572632,g
7.675154562860534,2.1734112895972832,5.174337184293814,8.121327044145854,3.6569568946313487,-4.094099133068439,-0.9413854528218264,-1.0220873909217008,g
6.962185499955349,2.556602119252177,4.100114618082257,7.343276170435297,2.667139701017717,-3.2887224472381873,-0.5579617796145295,-1.610515532993975,g
5.861964312896549,1.8315936397316253,2.6601826564092614,6.089437412553869,1.2803563849494446,-3.817051537517994,-1.3445652143702795,-2.7224299599305324,g
4.635267154651944,0.8292973421463777,1.1256146154607227,4.669415599702766,-0.301177486580153,-4.708686820736601,-2.505241497937559,-4.018053841764983,g
4.635267154651944,0.829297342146378,1.125614615460723,4.669415599702766,-0.3011774865801529,-4.708686820736601,-2.505241497937559,-4.018053841764982,g
3.7144847224510067,0.016595159570471037,0.007894404563218415,3.557721414634328,-1.6423257010665235,-5.532384029033026,-3.630289406070402,-5.099323416341556,g
3.372579505510098,-0.2594569196013057,-0.4385382838805339,3.027156106015858,-2.4874257439436986,-5.992382303390075,-4.422910495355753,-5.719465055084941,g
3.5291958565936428,-0.03197257118712997,-0.3595954294099165,2.9768953633347555,-2.8817705535414966,-6.090778016759988,-4.826932807789084,-5.87532867050652,g
3.839545412481537,0.33770842525029754,-0.1440166732787213,3.0449753837649283,-3.0673028534935223,-6.058478596314016,-4.986130437152489,-5.740692308842781,g
4.014037449107059,0.5363231933871744,-0.08550206398624978,2.930071165687224,-3.235365865625643,-6.127151533805586,-5.088472420655699,-5.510672046723077,g
4.031631721255995,0.5906722280606055,-0.1639589476649334,2.6337014881963277,-3.3550427585299913,-6.327932994553878,-5.206182238652714,-5.265248514722925,g
4.051378828767717,0.770963722477515,-0.12096649338889534,2.415427944371989,-3.220446656499252,-6.476332357263047,-5.244566149082743,-4.942825540865105,g
4.1978088908434374,1.29520619561149,0.2850616640228449,2.541364378401844,-2.648308577089475,-6.347286963410524,-5.041186561485829,-4.4440641987747345,g
4.466733712924574,2.1785593409558914,1.0812530481989038,3.0638740180318598,-1.6429637896076912,-5.878337188208322,-4.531557947136191,-3.7799976932397614,g
4.756285144813113,3.2628472080824067,2.0580411309402984,3.77876032256754,-0.4174564343535909,-5.22019910959195,-3.831963933109388,-3.1288055005523114,g
4.913287220193304,4.277079645519527,2.889311530744035,4.34996520286961,0.7135557452444565,-4.608827165111901,-3.1706132734287027,-2.745504242717451,g
4.796384775193255,4.929306852042133,3.310555088854322,4.513385311469076,1.491010114838051,-4.197688555942351,-2.742511984552354,-2.8055262136277697,g
4.374432863080807,5.075392343797622,3.2548453725698403,4.232948245797279,1.827048941058374,-3.9948720562768556,-2.6135234549384894,-3.312464067337783,g
3.7474319942694256,4.807722785526282,2.8460230036335723,3.682427720769719,1.799915415972625,-3.922928440311705,-2.728467252330328,-4.129201861798272,g
3.014740749459976,4.305728476967208,2.2471752177870465,3.0534339457892807,1.5287514943409855,-3.9165896892855967,-2.9909418212754653,-5.091720574844713,g
2.1474888146227085,3.6206320628189888,1.513527624589884,2.3755616400772537,1.0466830736295005,-3.9714421909004782,-3.34444061821321,-6.111573503390824,g
1.0545541962181197,2.6900737039425193,0.601413584256633,1.5388102803530148,0.30460139978548484,-4.11009579497014,-3.784004844388915,-7.179047057486912,g
-0.24219606763075036,1.5371628083646756,-0.4982527056016773,0.48110431746695814,-0.7033626202574581,-4.295258443922526,-4.27454686284524,-8.252770127085478,g
-1.5638766030025864,0.3424617026469685,-1.6698292122806149,-0.6783593367474743,-1.8390649899133158,-4.375316092877911,-4.6546295691291615,-9.141214855986638,g
-2.7018878560208313,-0.6951818501058136,-2.7179969424260064,-1.6956433497669845,-2.858249965893486,-4.145124532409271,-4.663036778536609,-9.529975403625865,g
-3.5438130353017114,-1.486894651162858,-3.4866488391026587,-2.375520672111755,-3.55368934335772,-3.500467245821441,-4.120217284202143,-9.183453492170287,g
-4.1056310131128555,-2.047621126216439,-3.951489857081076,-2.7090818827737917,-3.8827896589772655,-2.5468915644153443,-3.1074835334687405,-8.150931702342474,g
-4.5256049601649995,-2.467190864155101,-4.2383771823689695,-2.889024312023042,-3.9890980740557596,-1.5448810952987806,-1.95006184927379,-6.7690865290686375,g
-5.024352731848813,-2.9054534180692584,-4.5555231880688725,-3.1975417028376834,-4.105588468336406,-0.7331999680809997,-0.9982731631564331,-5.442499036232562,g
-5.7752790755779895,-3.5067245430031795,-5.066704991057558,-3.8294248305070915,-4.403458375620096,-0.19032205338370917,-0.402132466047248,-4.3952626910036985,g
-6.771910768133893,-4.269937466270404,-5.804846321090963,-4.781061354582421,-4.9010763450130606,0.15618208355066554,-0.06908438726469494,-3.599135350214202,g
-7.876069908863118,-5.0881270040096584,-6.721078830967255,-5.9113671485489,-5.513984781800219,0.4032742183943216,0.18176115747382166,-2.9123981570617823,g
-9.02277000871232,-5.961746721582086,-7.818289762625469,-7.115645465889453,-6.194253698322612,0.5440589894845549,0.41151797982529736,-2.2919197126545425,g
-10.324708033407974,-7.081124294763083,-9.201649163506172,-8.425207853252015,-7.007591062738918,0.4373368373912932,0.46933069647477954,-1.898088258106851,g
-11.946302545324084,-8.620692572598198,-10.971356965582403,-9.935730421543647,-8.063011902425728,-0.0940558318860419,0.09923086765688045,-2.00062734688498,g
-13.912658191899945,-10.498336275135166,-13.068486061600728,-11.659899733924878,-9.368348865736834,-1.0923547315066575,-0.8186429212686157,-2.748726408249439,g
-16.038277061148175,-12.376523022927163,-15.218690940269976,-13.445973857545534,-10.745187146476813,-2.347553703168626,-2.081626394795344,-3.990507633187974,g
-17.958025923249433,-13.828805725467031,-16.999874154886175,-14.997307813044554,-11.86101291243899,-3.445852518811428,-3.2065211008436814,-5.304628799303864,g
-19.2011064669731,-14.470860437681552,-17.981248658034534,-15.960160349010138,-12.35212616928575,-3.975594702737871,-3.6939207469341526,-6.233021668402349,g
-19.354984385794133,-14.06685855512114,-17.8890730240012,-16.061559201148366,-11.98514082912519,-3.7522025841040225,-3.320155491179938,-6.533504733101681,g
-18.296915897720968,-12.671418611818591,-16.73564491884932,-15.252379459021839,-10.785567238248841,-2.909303519320282,-2.247719298342452,-6.27129251385807,g
-16.282325276572475,-10.654581926008003,-14.810067802860473,-13.746595786025074,-9.043260276334346,-1.807140795311014,-0.8999771365516945,-5.717959229059479,g
-13.754740376003388,-8.468635520589745,-12.50287881552644,-11.89508683278078,-7.1627789423943655,-0.8240406096777061,0.2940900462918735,-5.157917626195583,g
-11.057979681170163,-6.353404285080596,-10.093282331310423,-9.988421076083176,-5.4519466212119525,-0.15008959740843367,1.125461791464455,-4.72406409936511,g
-8.32588257539099,-4.2915472474344485,-7.666604884046109,-8.148438339999597,-3.9993277173459987,0.298496242502171,1.6750858479650301,-4.3451456061710925,g
-5.574200804024974,-2.197048942188828,-5.196032908849467,-6.363503872354724,-2.713243954546038,0.777660541174772,2.1858680898616583,-3.8353413281426567,g
-2.829784378645994,-0.07264534967361484,-2.693733972057615,-4.603609597909506,-1.475319029539635,1.4768422470726565,2.817541839722939,-3.074709957209238,g
1.9685329255874708,3.6209675856177883,1.5522062735520372,-1.5897068268008998,0.5845436883808885,2.942170614935302,3.792456272162581,-1.307146591506523,g
3.3474251745492167,4.566219741314743,2.560708953139865,-0.8740335254210596,0.8682966156501133,2.9600180407546057,3.45495793766901,-0.8221041026234908,g
3.657198353606268,4.552978163130538,2.5036373660896323,-0.9958956886964849,0.35985129972508983,2.2062592687399674,2.3564354239463032,-0.7767285502383746,g
3.657198353606268,4.552978163130538,2.5036373660896327,-0.9958956886964849,0.3598512997250899,2.2062592687399674,2.356435423946303,-0.7767285502383746,g
3.0100286628893542,3.732582432591913,1.5686389556394613,-1.8672805731707083,-0.7988885449771229,0.9053112881555382,0.7575005001317227,-1.0136373251210453,g
1.8686807160380092,2.6345924639185965,0.2706470047348363,-3.1068086003945563,-2.1424688492977237,-0.4067342960527829,-0.812137236195951,-1.2021693357951555,g
0.7642389264744629,1.8378925304056444,-0.8136465727085538,-4.2361657589361945,-3.1057683839211587,-1.1378081841390992,-1.7816303308410866,-0.9924466934597479,g
0.027453163054086294,1.6564041584315388,-1.3187210203991886,-4.9087635244615875,-3.3013950046522518,-0.9318910693584328,-1.7860635488189995,-0.17687766404451333,g
-0.2888934023770663,2.0791545330787295,-1.2022686036586578,-5.025546555076361,-2.6728342477993294,0.17285031151915417,-0.8012419048274613,1.2212876708603237,g
-0.3610240815232558,2.8635062954538224,-0.6853214177196895,-4.720901543700974,-1.4633552920398039,1.8153687768800641,0.9053187959422802,2.9848934006160954,g
-0.48823431434121567,3.6494032262043206,-0.08621863833738797,-4.252469033175434,-0.046110055910176875,3.553854774675321,2.9569633171832925,4.838455326772814,g
-0.8978385628832367,4.145146109638806,0.38374129956787095,-3.8245970504138533,1.2920579703303856,5.103034025878275,5.047068586860771,6.585108600630569,g
-1.5317346475369664,4.3582644276077005,0.7622168665979553,-3.4320726889055955,2.4951565473102653,6.419073651268782,7.012314881557749,8.162472261121893,g
-2.0338926822288377,4.622953544508707,1.3032218966637372,-2.858240623288414,3.713039345402932,7.616746494840827,8.80075751061301,9.607499943857261,g
-2.0034357958721243,5.311811948443322,2.2755750563809136,-1.8553239483860722,5.119813307645062,8.804768864816527,10.390246983476434,10.965930228104138,g
-1.2752931685789821,6.510909005966411,3.7504475533345927,-0.3588141726062776,6.715628277842496,9.940616604983173,11.703648103626096,12.19070698664469,g
0.013400824673813538,7.97497946335334,5.532531189339825,1.434814249923792,8.259036829388101,10.782702709814172,12.561855162652497,13.089043071546737,g
1.5418704054288486,9.312459469865619,7.248742353906449,3.1555876743390336,9.36263080010514,10.97899304783013,12.71771809430835,13.378042333409502,g
2.960092586041635,10.166307096064646,8.517770895184423,4.431524429860142,9.67920656121538,10.254371278953505,11.96854372848183,12.83793539372331,g
4.039357967783738,10.342667108123257,9.129739794165058,5.061788222736228,9.079078984019372,8.578734010189262,10.273736234511158,11.454330805001225,g
4.797405221718995,9.931591264189903,9.15816651196955,5.113388196265059,7.728764896176841,6.2035315151036965,7.799132149222873,9.435993331405061,g
5.467193481374481,9.295632654034936,8.91070448385861,4.86015214197222,6.013438703398846,3.555985594537236,4.878990036073379,7.103669022039765,g
6.2640189268243995,8.815867592844384,8.723106136150555,4.5822359121747835,4.341062652921267,1.0748908671535762,1.936097421494141,4.750505281299761,g
7.176481286883693,8.613654303176064,8.761558957352744,4.396251594839027,2.9722940825207234,-0.9196512768419165,-0.6136314999472161,2.5742999521452825,g
8.020333205350191,8.565300469677657,8.995898683134806,4.266707894839514,1.9961000892100174,-2.280039823380626,-2.4629426640352903,0.7002635190079426,g
8.654648135810762,8.543128320426883,9.3104131141226,4.137013042638412,1.4140393846262436,-3.0142010240300015,-3.49329304776873,-0.7643320940872961,g
9.06585807592653,8.52878591272049,9.592503478488782,3.994812813700009,1.200139340883742,-3.232477948650908,-3.7944710510127164,-1.7206201280940732,g
9.26186762196475,8.50305602254612,9.738458270919145,3.818235073918932,1.2864279831053818,-3.098052518231442,-3.6131734162889453,-2.1382783332520474,g
9.18638461501377,8.366076070877252,9.654441484988796,3.5260636909160965,1.5492914887766474,-2.7907964013102715,-3.2482581792339893,-2.119879009374549,g
8.769146327456614,8.02577575018626,9.303224499888422,3.0276643922464137,1.8611141366015294,-2.4600906408697663,-2.9191016746468947,-1.866956216228869,g
8.002755840002148,7.485935544868482,8.741136235336917,2.317698398274765,2.166129519369501,-2.1627017305141094,-2.6586966815000617,-1.5335068469415218,g
6.950176995866267,6.806518392573499,8.08800947046083,1.5107025560601701,2.4994292644543803,-1.8430386806910328,-2.3154772065102263,-1.0956688389314977,g
5.719405068545922,6.045164757254369,7.449965159941264,0.7814368462109293,2.9270709238037425,-1.412063155499966,-1.7014294744425116,-0.3872334704560941,g
4.423878097916472,5.2609881996444035,6.84581750832654,0.24595169871397116,3.454573184584743,-0.8765335961866303,-0.7868819318736908,0.7112728670800919,g
3.0972574448351025,4.4911191780073505,6.180766000143547,-0.14057906099887227,3.9796594929847635,-0.3816884073047774,0.23751971117867318,2.1155012624406533,g
1.6429816212732962,3.6918497539855144,5.3150152385290665,-0.5649237047532804,4.349285906458965,-0.0956242302127041,1.1040847849379534,3.573757143210454,g
-0.03964569420136392,2.8034276421384465,4.223454706801144,-1.1778095651575362,4.500971126638338,-0.033142587499582855,1.6888244720279797,4.858932299744153,g
-1.8346998762090663,1.9340467572831925,3.111972128467558,-1.8980181921790504,4.558229683406159,0.0028767916892909807,2.1074144143467257,5.9254331558458935,g
-3.3890371578717997,1.380623780291878,2.3240929953252736,-2.422608134536376,4.747418948063602,0.28704663201098235,2.6040881571175056,6.883890520151596,g
-4.385424202910899,1.3589255354176193,2.0684132059670057,-2.4796671914622093,5.174226103760525,0.944561708444747,3.3275446745047788,7.8173604585059255,g
-4.816755564740854,1.7498837177328064,2.2212063600187433,-2.0874666624440184,5.6728376007526125,1.8183204550261958,4.1713506373711144,8.601788912547377,g
-4.960478159239589,2.190029102460692,2.4080768271170507,-1.5670185289296523,5.893616681137763,2.551052357711,4.8106384325369245,8.900287716963648,g
-5.122848241888451,2.379862223144131,2.2851559691542866,-1.3121305767471523,5.557050665107942,2.834827093637069,4.9227275102685555,8.363840970118423,g
-5.435863736930003,2.2450644312939474,1.7606738474090453,-1.536583478443307,4.639607364273319,2.626353217493069,4.416031368786161,6.878326541242456,g
-5.834496280302365,1.85914840487176,0.9929447903198719,-2.18756452752573,3.3375811494549383,2.132424759437823,3.459197752491059,4.628887717820007,g
-6.150893722838763,1.316649041737063,0.21041764517056133,-3.0478166698768425,1.8682311202451172,1.5771135719017209,2.2860442728573522,1.9191056159905966,g
-6.149618423561765,-0.11554256453797525,-1.1495721598869129,-4.756842823597351,-1.4323870180652185,0.22546319494315395,-0.4818264774307873,-4.277908484232597,g
-5.969337381074443,-1.0859764813757184,-1.8986827063342855,-5.6004347432981945,-3.354010540708194,-0.787728322900659,-2.1271225009318933,-7.663470675014826,g
-5.769963005225375,-2.176709975078062,-2.6694631739937185,-6.439690342994618,-5.270585771678246,-1.88962861672386,-3.763040863893047,-10.938534460768238,g
-5.7699630052253745,-2.1767099750780616,-2.6694631739937185,-6.439690342994618,-5.270585771678246,-1.8896286167238607,-3.763040863893047,-10.938534460768238,g
-5.435796592541989,-3.1199403574671623,-3.198901047173298,-7.114515790858325,-6.7987573580840275,-2.748063974306952,-5.0811584699847785,-13.62619499260227,g
-4.824578334389396,-3.640508517154211,-3.220404456585432,-7.4260583859966385,-7.6050527112900115,-3.1009514787384718,-5.843928212868386,-15.269227010427372,g
-4.010236384680298,-3.7459902845762385,-2.7169858960056086,-7.329645191660546,-7.643668296255939,-2.9355065292685985,-6.02019898563232,-15.66010049357852,g
-3.295522626919346,-3.729287475211508,-1.957127474644358,-6.98703063207702,-7.156887509390307,-2.4459864612121933,-5.7446942424532335,-14.90037173423714,g
-2.964488371264724,-3.8517545616461817,-1.2748833555534789,-6.619280958802776,-6.436322916439144,-1.8161949498060692,-5.142638771681989,-13.24944789812875,g
-3.0724049082200766,-4.100236559226871,-0.8219465469885895,-6.3280900379312515,-5.581007017102948,-1.02947731669389,-4.17651480079204,-10.895338386811641,g
-5.430675386710724,-7.180443151179904,-6.3454833392128025,-6.412545009600372,-12.74169853838671,-11.698732931599476,-9.623257491195503,-14.102197421037692,F
-5.260489356572046,-6.938529860423371,-6.206471660842565,-6.3531792238921865,-11.805820377122187,-10.981627767438686,-8.848486433312308,-13.091499408462113,F
-4.739137899612144,-6.189456321802935,-5.58693404188637,-5.867659244617888,-10.340648705768086,-9.670229596208525,-7.5541667645815735,-11.6143778395198,F
-4.129444924614082,-5.2224652722718305,-4.763316473306776,-5.108616643234493,-8.638774765970815,-8.087924666901875,-6.007569166504533,-9.829122179846859,F
-3.5310378393902484,-4.160660930229911,-3.886227190456966,-4.168365629388278,-6.900954203064434,-6.499010177679547,-4.435888242279678,-7.891519472403391,F
-2.8398397503563015,-2.9436807553909135,-2.9126205007799,-3.057460723201958,-5.165836001474084,-4.9213307312363295,-2.8673229202069948,-5.897280393876849,F
-1.8847438645225307,-1.471157476693861,-1.7293233501112504,-1.784985008473975,-3.4040477197790926,-3.1943028909440025,-1.1959069910499571,-3.9199717391832665,F
-0.6101670629808573,0.2563008367763606,-0.34357878298048333,-0.45116583701173474,-1.6758926222127026,-1.2379095797962856,0.5965798118796057,-2.1018999099014715,F
0.7844924676734191,2.0222145625649306,1.0039365839064656,0.7097264612919609,-0.2233234202648818,0.7415208670640387,2.2885030089655922,-0.6851537307812483,F
1.864600816013421,3.3714340687907516,1.9026108595127078,1.3813474518152824,0.5865113965155502,2.2872941643170774,3.4886292947820694,0.06944508994649974,F
2.2201051963926384,3.8248695300191997,2.005409029090812,1.3257141965151902,0.4545307555331529,2.94397786194455,3.868834986305206,0.014942464525252653,F
1.7940084227467286,3.238411023788874,1.2699292770689066,0.5553368550264215,-0.6497935024501726,2.5319879570592088,3.369051458687987,-0.7969754374988678,F
0.9427876129491342,1.9309354659190447,-0.005030489480552891,-0.6470590976562691,-2.4471020678462354,1.2502370259698925,2.2262241194137933,-2.1311894493329087,F
0.14996208441771638,0.41344140713154226,-1.383272515611686,-1.8992192067998879,-4.506284629858728,-0.45760411939984974,0.8161943119027733,-3.6733575866342543,F
-0.29514054712226445,-0.969363172930614,-2.542132113471477,-2.9229736044372117,-6.464798040304227,-2.172108241786362,-0.5757313529609727,-5.167100151943904,F
-0.3576235295174429,-2.12593679100364,-3.3694868445882022,-3.6153172870889727,-8.142775717999644,-3.705287656975713,-1.8889919286049874,-6.501602403148442,F
-0.11489275622179243,-3.0817350083893444,-3.897318094423447,-3.990749426384798,-9.510521764992125,-5.099263678401519,-3.227086448181077,-7.687884946423154,F
0.37239084127929944,-3.8669646933248076,-4.186741822380517,-4.096551736853198,-10.581934823771181,-6.441127227723676,-4.660824295226398,-8.745784555679446,F
1.1217073109292666,-4.462757931650956,-4.238874528902706,-3.948040443402212,-11.311025784525581,-7.66522494446996,-6.0708982031623515,-9.60122231052298,F
2.264526848856356,-4.722969173381836,-3.9528297051304344,-3.4866786700287333,-11.541109426817314,-8.503887366921438,-7.158983176528224,-10.077248323296528,F
4.004837507126482,-4.367487019001173,-3.16358524315672,-2.5980883117524605,-11.048469436743542,-8.610463730919568,-7.600922220001958,-9.973449731453254,F
6.460919479081857,-3.172538249813428,-1.761959227415786,-1.208804930587863,-9.676197316700831,-7.7566735268509035,-7.217110304668341,-9.168756091077418,F
9.532517274049876,-1.1951780594686114,0.1957413382759709,0.6206748177727647,-7.4650990767767835,-5.980151530270692,-6.05952070277729,-7.692094880252034,F
10.284641758687048,1.2431325069703711,2.4909362000496786,2.706630193773355,-4.671137278007434,-3.5973048556722675,-4.382497600893606,-5.732201667297381,F
10.7964961974417,3.7789084335608094,4.843857702259318,4.834963007625301,-1.6578006568677286,-1.0622721650707347,-2.5121325892634796,-3.5718814185853534,F
10.990307846208612,6.161568428618441,7.018414058688497,6.835279191649666,1.2513414256977913,1.2575594556014953,-0.6791603916227027,-1.4656930358075324,F
10.855169863531259,8.260094086688575,8.886313300015043,8.604438699131098,3.8766783131979055,3.243588763133444,1.0728934672551595,0.46491439880616736,F
10.429156688269739,10.06353967962267,10.455634291295869,10.11744238150252,6.204898445757323,5.00425223135914,2.8261502060617394,2.2376656852566486,F
