Fz,C3,Cz,C4,Pz,Po7,Oz,Po8,Inst
3.8186351555096563,5.001324020453149,0.15950064861876526,-0.6532391243879444,2.5257517996981766,-0.6491365935594213,-2.3469165492540123,-1.0668531500033818,g
3.8186351555096563,5.001324020453149,0.15950064861876526,-0.6532391243879444,2.5257517996981766,-0.6491365935594213,-2.3469165492540123,-1.0668531500033818,g
3.8186351555096563,5.001324020453149,0.15950064861876526,-0.6532391243879444,2.5257517996981766,-0.6491365935594213,-2.3469165492540123,-1.0668531500033818,g
3.8186351555096563,5.001324020453149,0.1595006486187653,-0.6532391243879445,2.5257517996981766,-0.6491365935594215,-2.3469165492540123,-1.0668531500033818,g
3.8186351555096563,5.001324020453149,0.15950064861876528,-0.6532391243879445,2.525751799698176,-0.6491365935594215,-2.3469165492540123,-1.0668531500033818,g
3.8186351555096563,5.001324020453149,0.15950064861876528,-0.6532391243879444,2.525751799698176,-0.6491365935594214,-2.3469165492540123,-1.0668531500033818,g
4.322103447362386,5.7539219302980005,0.3323204687040383,-1.0042532819159808,2.752361074291612,-0.7595918447489758,-2.4731519353023925,-1.2606052492339526,g
4.358202552343096,5.970551717987795,0.3169860772046843,-1.4885387677421926,2.8008480301649348,-0.5666255581494815,-2.112306549600734,-1.3747775914570473,g
4.165389813819525,5.926030988201116,0.2215408013425831,-2.0744183989041898,2.723328116001607,-0.09025162404358081,-1.3088100742942843,-1.3406000394290714,g
3.9445495688608014,5.849688285339769,0.06790810631422715,-2.7806873263624237,2.504725866013588,0.44046614775163306,-0.32109784220785254,-1.2280329244041046,g
3.7330799998361828,5.767934671629644,-0.25106512450446966,-3.671197520494998,2.054821728378788,0.723379421736243,0.5299766208736392,-1.2129311834026877,g
3.46794338124391,5.559616799121415,-0.8742845485832561,-4.792766619386527,1.2859546587854074,0.5735673717456586,1.0390062168265066,-1.457984970745476,g
3.154588582756713,5.152278128431204,-1.8195480757275881,-6.101699916166065,0.20928930741703106,0.028074683636694096,1.1967760316464549,-1.9964596037497924,g
2.9447645610211213,4.639980199998573,-2.9226675990034208,-7.4413738039503325,-1.0398351578395746,-0.708702656738619,1.1308307460463045,-2.707250032390485,g
3.0336654191828503,4.203894281225036,-3.928895768640963,-8.59555928535512,-2.267647224390418,-1.423809752737651,0.9731527258519336,-3.3964999788691266,g
3.492019479153266,3.9507612082611407,-4.650848469071434,-9.384191346111004,-3.313932234156735,-2.026852934060025,0.7664904136176376,-3.92036711071421,g
4.207026648674353,3.855458516673137,-5.058829175518655,-9.742481497684556,-4.0988675339897345,-2.562632614600564,0.46682033553392177,-4.261240387703961,g
4.971185743358035,3.8355075943883663,-5.2515944164698105,-9.742071018074707,-4.6164651730971675,-3.1224822080000787,0.009874034777966357,-4.514190447128136,g
5.619348587712868,3.8410624324919938,-5.356477917562136,-9.545239206543581,-4.908992185118772,-3.7414682409293696,-0.6281449380287676,-4.806354678926374,g
6.112096512914268,3.8846624683513866,-5.434663798920546,-9.310882767635265,-5.039362593555035,-4.353579935827627,-1.4113745393077783,-5.208774255147487,g
6.534649344478581,4.0345061186192215,-5.440003875202096,-9.097947412483066,-5.053805140385419,-4.81682718543109,-2.251289288060677,-5.690598934591835,g
7.024257126946225,4.393674705185737,-5.248686013922727,-8.827993864823137,-4.941961622035388,-4.976183465948861,-3.014471735817793,-6.129472331963995,g
7.665085079083788,5.047809600022648,-4.743937169654728,-8.343050556257685,-4.627225600561159,-4.726436712169045,-3.5356476055991095,-6.362605491629681,g
8.422490286403185,5.999457159058455,-3.901285957496422,-7.5266754588512725,-4.00835075795307,-4.051940950135317,-3.6609966579867845,-6.254819221279584,g
9.173899493542041,7.154550753527779,-2.8133950729430435,-6.399989325316307,-3.0314309014455216,-3.033803044248922,-3.322308198994114,-5.760151233497718,g
9.807038487101048,8.376863349940919,-1.6415491770370463,-5.119476385499725,-1.7448255445349492,-1.8232131866994614,-2.5960832264693186,-4.9515230536715595,g
10.293144064343547,9.5470134939329,-0.5373480731716339,-3.8820556775815467,-0.3001271472150774,-0.5912006152866864,-1.6913307641155377,-3.999415631237624,g
10.684043244458088,10.57983000310062,0.41316472548108757,-2.8141351497569795,1.104237837027257,0.5200332712174658,-0.8588480945080779,-3.1057515661541406,g
11.061405656249221,11.4235201151195,1.2002721379315346,-1.9252185188926962,2.304446370877783,1.4175419847358417,-0.27845850863165766,-2.4268491652559647,g
11.482103519007092,12.063010906171627,1.8595750359613081,-1.1487203065564362,3.2267473988257813,2.0469455246681676,0.004484154743355307,-2.023929370486772,g
11.93708219695595,12.506287803394827,2.4198479448251735,-0.42589716967045027,3.883883274652844,2.378731651952124,0.06589211274752764,-1.8599299214030804,g
12.343842942431076,12.754387449182339,2.8680889875762547,0.23628657599246763,4.326694293639589,2.4206751834114373,0.03930362938368988,-1.8375092117406637,g
12.596854814198476,12.80364371899545,3.1627268348348174,0.7720254242685844,4.596370882554284,2.2471243372916874,0.04639187258047337,-1.8576763442481146,g
12.64722906007331,12.687036048579794,3.2783504632110607,1.1104958726326328,4.706644536947847,1.9999296838314915,0.15140386007914317,-1.869996895415651,g
12.531292332125002,12.480981485994656,3.229035520124338,1.2256491121277022,4.649745448861635,1.8312222266996983,0.34853557993982476,-1.8872889002615463,g
12.315504477372269,12.237996368964934,3.04682272291132,1.1461447212714388,4.410686329109271,1.8179316133976804,0.5782512198536631,-1.9580414822384262,g
12.026462778790881,11.92568000441855,2.7515581328979994,0.9320525601443137,3.988394383188664,1.920269055804083,0.7623488685228437,-2.1178517316452057,g
11.649185222306482,11.466991704140053,2.3568989145519437,0.650741306786232,3.423113359170941,2.0316577801153968,0.8460151860053156,-2.352055977280177,g
11.187041477304756,10.848468943823034,1.9069283208054066,0.3712280304828294,2.8115669570880453,2.0900380635271056,0.8329814106341408,-2.589919138184463,g
10.70836932873919,10.17627297151227,1.4978438635417255,0.16432237947356523,2.285789929239878,2.15684321997028,0.7926488988625701,-2.734735536119069,g
10.330259485742504,9.625502886519126,1.25183313760009,0.08418561365507934,1.95453814584929,2.383333828862718,0.8195820693345587,-2.7221683879328973,g
10.150187430080305,9.333725079331193,1.2504952166389793,0.1304380108735282,1.8378467855100247,2.8764340818230907,0.9570261864830535,-2.5801359462648796,g
10.169603004180853,9.31346437285186,1.4685657792438698,0.22303193599506202,1.8394255928664998,3.5727147218433606,1.1403553277136944,-2.444162634060311,g
10.266281402756805,9.433009717904563,1.761827681756687,0.22593736079930485,1.7872334282802183,4.235076542141021,1.2183577695857986,-2.4966778930772278,g
10.258401386785044,9.492162063449474,1.9391900386923564,0.02054129619481897,1.5315578370770373,4.586132884677501,1.049215535579966,-2.85556094348133,g
10.03179883114806,9.362770689820046,1.882848719721204,-0.4146944930983979,1.042672796156647,4.47717495772738,0.6013059785231999,-3.485869170451582,g
9.61999264597069,9.081503804219233,1.6233504984955864,-0.9773879758139742,0.43688261995806366,3.967373201286532,-0.014375131734078473,-4.197942127446586,g
8.700971657250381,8.613526152316593,1.0403543975337304,-1.8550981755444766,-0.40632234887944874,2.5904218640983134,-0.9567877865046286,-4.918549465997576,g
8.224229126083864,8.50671251666651,0.8561150717580499,-2.0596091028345023,-0.4747762726609757,2.0540086359311616,-0.9978480705436457,-4.7200836376133735,g
7.592087995082257,8.36162013584678,0.6533516099117134,-2.244212526106222,-0.3839842990375029,1.6452019780319969,-0.750416083482998,-4.283973524044496,g
7.592087995082257,8.36162013584678,0.6533516099117133,-2.244212526106222,-0.383984299037503,1.6452019780319969,-0.7504160834829979,-4.283973524044496,g
6.721676066917683,8.087251921499567,0.326536457215962,-2.5447076526546946,-0.23427580857871377,1.3048879291552296,-0.3307768720622821,-3.8047895533177183,g
5.6549215110476005,7.679464162104336,-0.13759204178037043,-2.9751481385439327,-0.05456197106018131,1.0171662504339427,0.13481106836649004,-3.391465669357596,g
4.5460144156109425,7.215538967651182,-0.6281103563004352,-3.402468375795172,0.21803454787773688,0.8405615530657116,0.5747240237202017,-3.009856001098931,g
3.581093711845605,6.812960870616736,-0.9698569835836505,-3.643497631604562,0.6808834235177338,0.8674917127412074,0.9887209720202943,-2.5484975068389524,g
2.8899860480327773,6.575143654790932,-1.0270006845707893,-3.598150501821439,1.3806868898746083,1.1618757037982246,1.4179985974931983,-1.9400336857875289,g
2.5158728940768347,6.552577407891174,-0.7639112246171552,-3.301794257403226,2.2743679875966576,1.7302056625059063,1.900359681315173,-1.2270870595782626,g
2.470819221610339,6.761909205174217,-0.21026023041924224,-2.854657918860881,3.2733016991591626,2.5392315909478222,2.444427576570933,-0.521360796445145,g
2.8158320663025824,7.2470589434728865,0.627795247307637,-2.2992495302775997,4.329969347313205,3.550351666279925,3.033232546022197,0.09786018632248616,g
3.6575449707751337,8.090769352881487,1.8063046893350165,-1.5638762549998038,5.479446533133007,4.731582693782084,3.641380804955541,0.6540055175143169,g
5.042759962326604,9.33419065350329,3.3818281804816293,-0.5247586734147643,6.791075197370351,6.035152674891606,4.2446602489640854,1.2560947531379856,g
6.866643717083702,10.895799011977795,5.314475852454274,0.8754099954747712,8.277537870317406,7.367061668203507,4.817359429218927,2.014860390657673,g
8.905354954431527,12.596382979063224,7.439114402839702,2.561868312226944,9.846823294040089,8.587861156483587,5.329171147846382,2.9642240270291054,g
10.937198718463359,14.259675980789325,9.53026740466547,4.361148598982541,11.331681147829938,9.555524842985555,5.751450504030542,4.045229850836041,g
12.824699309961426,15.772475306271062,11.395872161664327,6.082566394333286,12.56006665815785,10.178211076566502,6.066732687320565,5.146734017990157,g
14.498750605759692,17.06596822469217,12.926662673526087,7.570610223106344,13.411107711267386,10.432469687415145,6.267174998882452,6.151148162629125,g
15.89751307105222,18.078452706539927,14.081690355612562,8.708282863136775,13.830649901787378,10.336128912483762,6.33996078447404,6.950782862195439,g
16.933681225439607,18.74477845511608,14.840965298728756,9.414182379486538,13.816249168212172,9.910944959066507,6.258528116725136,7.4538252452639195,g
17.51684956104318,19.005104683091023,15.175848887405573,9.6724988905085,13.399611616730374,9.179084538075958,5.999863328646119,7.615604977967251,g
17.61544570005666,18.83079225609555,15.07026532235684,9.574285976922411,12.646713650692703,8.197296807923458,5.580121020707112,7.483970239047309,g
17.308370901365336,18.26871879280498,14.571163762544694,9.3046530315906,11.664980845213172,7.08517775497547,5.072632568398047,7.199617961643876,g
16.758965532484105,17.455424426661747,13.801841387685965,9.045839287513616,10.586430408758767,6.00392105575019,4.582150801271514,6.9185036154527895,g
16.102294773176382,16.549595926950598,12.90412911922011,8.859055328011246,9.522270536044632,5.093323171826341,4.192407562929257,6.708427467961411,g
15.346498376006526,15.63410471787127,11.963348099423394,8.658469922287061,8.531368880387578,4.420764683804067,3.9327769499500773,6.516973141616257,g
14.402968612392689,14.702064170446487,10.999469275613032,8.321664157837258,7.640597496283263,3.9842592006799817,3.790923098763423,6.250121781934929,g
13.223113387358282,13.741926828753705,10.030274301957203,7.843553044639167,6.8919641847116795,3.7574424965830366,3.753281130518441,5.893368160867064,g
11.894287553371033,12.807628831417883,9.125576850827667,7.381197687466653,6.353068537973334,3.7274599359332887,3.830771006487212,5.5610324457066636,g
10.596519865984993,11.991326818873063,8.385136912811197,7.132395322189249,6.070249218822808,3.8901291885164384,4.043296831136745,5.421681289545864,g
9.473386095060523,11.34948926630459,7.861446230320989,7.15224794122056,6.01436928899688,4.211441943555906,4.376261937270716,5.559388274482748,g
8.539528025191808,10.870747985528462,7.505360403830291,7.2772864881847585,6.081303008477646,4.600281331336094,4.752866550037737,5.891608205871186,g
7.691184952290267,10.496929294361994,7.18965477492028,7.232362223355085,6.154528158427578,4.932839834934817,5.058549947466281,6.219689779636933,g
6.80151594225452,10.159630789739666,6.798466036886516,6.83217282409022,6.177928724546022,5.120813205386834,5.2064235702710056,6.372151829016828,g
5.830610737918626,9.814200734058023,6.31268707303558,6.106501891421238,6.175545165026468,5.163529681443984,5.186917300335924,6.316456991056523,g
4.86263257265586,9.45799129152123,5.814338950895139,5.248018834701753,6.197917256904559,5.129036158193769,5.0544839764004115,6.145142320168018,g
4.027038068610887,9.10639458858747,5.397679043640643,4.4392702754359,6.241691122310788,5.078421417393602,4.866364634112554,5.961566385674741,g
3.371484559754476,8.7427111399764,5.06909728530435,3.7180360958847687,6.2246816823346,5.009250512099053,4.63617415207259,5.781033359318315,g
2.820394157814378,8.3165128305333,4.741088632269178,2.9951781337732135,6.05543820478211,4.875750224525513,4.345851663911078,5.536874635083115,g
2.267766894189756,7.817895122946825,4.33309217902431,2.1935352608912755,5.739296263457776,4.663622419485921,3.9979629116172823,5.173315205428554,g
1.6997945380480015,7.337582867877856,3.876502507142399,1.369727134014017,5.411136859475457,4.4419384962360215,3.6522126463376807,4.728108176366623,g
1.214235501280505,7.017445937421732,3.514129068144632,0.7064985594662848,5.247119710301808,4.336550110334487,3.4066272815886913,4.325404568237006,g
0.9296872788790418,6.934295649491583,3.392536353036949,0.3861861236094553,5.3279070044715136,4.442240073305351,3.3337565748454425,4.085948707334968,g
0.8899063226476482,7.047377777683155,3.5475443299219522,0.45859725098778237,5.577667636859704,4.747757891135302,3.424068208406638,4.036886243179972,g
1.0466254840980773,7.256106204707234,3.8811185605697416,0.8130645913840799,5.833064793218035,5.140906612710377,3.5891427740651274,4.102734730856353,g
1.6596309711699935,7.761126303191982,4.551741444831185,1.7113719105119607,6.040928692498822,5.755897470270122,3.8132056266774486,4.2466345123452305,g
2.1183369689507865,8.126660626113216,4.844515630908255,2.1446044239184814,6.1454593196142255,5.973614427247929,3.890347894966001,4.343367634514643,g
2.772044844784136,8.636192751685247,5.223561900163185,2.6561377287508567,6.397600477064495,6.214054239409815,4.0286913507497975,4.539903174902738,g
2.7720448447841366,8.636192751685247,5.223561900163185,2.6561377287508567,6.397600477064495,6.214054239409815,4.0286913507497975,4.539903174902738,g
3.6196704341248513,9.23175869607498,5.718079058303664,3.2926048961221097,6.745490341476122,6.459767415705653,4.215809512765828,4.819972518561851,g
4.49301074360264,9.711938143696322,6.192696749640932,3.9664489829230627,6.957726115067008,6.566069090013113,4.3144211700903,5.048024791003965,g
5.105320101948964,9.816615801714011,6.391648157594426,4.465063316241105,6.742722575612008,6.325199410575984,4.115286428939163,5.027259549611829,g
5.215338990536962,9.385745983212525,6.0935736767857245,4.566242661746615,5.932134414841065,5.595969833991525,3.460302633277295,4.6151557810920245,g
4.7716177414470184,8.450003201677077,5.254643399198271,4.18113356036569,4.594566692369618,4.407922504848271,2.3554260203791437,3.817551086796432,g
3.9309388082791097,7.185197748767324,4.0375424466730845,3.423465099287378,3.003221499694918,2.9693666715542917,0.9958360594423109,2.7971621700810987,g
2.9597864199518473,5.805015216061166,2.719582129348539,2.554462038410852,1.4907815698576468,1.5744966289153748,-0.3209970219075756,1.7882907832933739,g
2.0902551106044913,4.483869401420192,1.544909683040363,1.834882967626606,0.2870796458106536,0.46566098080348883,-1.3483721720311905,0.9691477885824789,g
1.400520840446043,3.3162479192764267,0.604157999951556,1.377712843393771,-0.5729605728930384,-0.2693251176432489,-2.015933579966227,0.3722473938295015,g
0.7900862273083502,2.2994295226311583,-0.18521654811715155,1.1032436259370413,-1.2224574402413872,-0.7044517652655522,-2.4412594248817876,-0.10635274420896348,g
0.09286047877604417,1.373386023639179,-0.9723157176776642,0.8347444368734633,-1.8259589272196852,-0.9840983852131704,-2.812649857229121,-0.6024945387285268,g
-0.7391428728307499,0.5191503095134191,-1.8102551479474998,0.4618246221747023,-2.42229262327188,-1.1995427406740664,-3.227661869009986,-1.1608574405318663,g
-1.5458692672541692,-0.18031935918134828,-2.5752416039032284,0.031220044353604592,-2.876471254685568,-1.3296097639808508,-3.616973629498174,-1.6919459769989444,g
-2.0566876624498542,-0.5963097836505684,-3.0440290506554617,-0.31397236752578633,-2.992187342007791,-1.2908146746542983,-3.8168588880178604,-2.0446664730941544,g
-2.080831208027214,-0.6643634119321664,-3.058138619156679,-0.4792133508998477,-2.687521451262147,-1.045470171459764,-3.7241997006016505,-2.12984723336372,g
-1.615449498645151,-0.42386541071732314,-2.628115808832887,-0.5010103802118093,-2.0749015349327107,-0.6654915879974895,-3.398143042477929,-1.9877576827623955,g
-0.8032358760971003,0.031609600016256525,-1.902960013247349,-0.4914037385369955,-1.3815153286192174,-0.2952390860476464,-3.026839850107388,-1.7476401491343445,g
0.19027434576516591,0.6139169319832748,-1.0508564756987593,-0.5056223745324817,-0.788888211204011,-0.050056204355873865,-2.795191742731222,-1.5212788618383963,g
1.2802611395841754,1.2667049927468133,-0.14992576228038032,-0.4587179730941589,-0.32221116803380184,0.060449838701376345,-2.762512893992192,-1.3214693538071214,g
2.4884482306508486,1.9751551694105642,0.8360021368322114,-0.16867617510054392,0.13412665689932263,0.12189005714348364,-2.8407103909246874,-1.0704509993128937,g
3.8760641256515584,2.753785778695023,1.9796575998465638,0.5008693679234872,0.7118153333491514,0.2288782452332649,-2.882279299916831,-0.6905438171472118,g
5.431005105467802,3.593409100505859,3.2691418959282985,1.5106391933302359,1.4212738379595655,0.397211927029058,-2.8024084745480344,-0.20010004821261368,g
7.017746319384766,4.417160626787627,4.555167502341624,2.6460031419175136,2.119601147671789,0.5524102506267571,-2.632198784084125,0.2737033190935455,g
8.45682618503417,5.123212933004718,5.634087421383748,3.665240246178886,2.623135371849587,0.6079729803644207,-2.4619496138178527,0.5846019708010692,g
9.656826997506531,5.682852139279878,6.399780535440874,4.474968602411446,2.8662654386702173,0.560761097304401,-2.3392342035080738,0.6803483558606551,g
10.652001325736007,6.166488632403408,6.914765837726685,5.1711618478713,2.9502721136386816,0.5050873495727934,-2.2312143582432227,0.6299359389721035,g
11.509869742489908,6.652926131162469,7.327539548902463,5.902050790591785,3.0296442466747986,0.5397039976997379,-2.0901380176765656,0.5344262257883297,g
12.223695510543553,7.129883478806741,7.718717673218846,6.679482439530839,3.148129632452576,0.6526153550565134,-1.945933555646505,0.40630254828939877,g
12.705849396484696,7.498589949087025,8.02350987993471,7.318519993866825,3.1873813861004985,0.705788950527019,-1.9144818675646842,0.1400465704324918,g
12.875107489089014,7.665286800784661,8.098486415351122,7.568740361910424,2.9803018569853656,0.5555805771887534,-2.094908236828796,-0.3848921399368829,g
12.746381788626184,7.626150645808764,7.870214801320723,7.326536188943559,2.486996501030786,0.2088993580289939,-2.4474353681083656,-1.1554193765846146,g
12.447164009631678,7.487193218648319,7.435022048349,6.74459798368388,1.8757345619223458,-0.13459878118072433,-2.7733478814502783,-1.9692360351104843,g
12.143804833846314,7.409923315756457,7.016690957864187,6.143546853536397,1.4331434613148055,-0.20709540049922462,-2.8285298190162655,-2.5330503911143216,g
11.922544258595671,7.503016265948775,6.805836862472555,5.798780978298364,1.372357382930481,0.13855380389541477,-2.4806541122872825,-2.639320118898818,g
11.719598778603636,7.731866417828686,6.814348456723579,5.774623056122801,1.6946022896108162,0.8379863140158845,-1.7843086848318985,-2.2823941317321768,g
11.37454590466466,7.941476871105165,6.8751813283301235,5.925743781086758,2.213512059329807,1.6919491858024656,-0.9244242852782737,-1.6352370311186477,g
10.768638282479793,7.992540345818338,6.786926040966909,6.039022436473356,2.7112030460060597,2.5318754271646253,-0.08528686359944063,-0.9218649879267728,g
9.916523468986446,7.877243416814485,6.470034359307634,5.984516695410196,3.089721673715738,3.3323071582092005,0.6536275337371855,-0.2852314556325304,g
8.931689362108186,7.698612113744479,6.005468225472154,5.766018209358156,3.40509595936338,4.190379915421939,1.3321947351878107,0.26828358365063426,g
7.923963940764028,7.558094218352535,5.549593044374123,5.467163654965086,3.78563353479446,5.208315507542654,2.0439085718873224,0.830782872370731,g
6.936932070084367,7.482507304834796,5.218937128680265,5.167793873681754,4.321848778864473,6.384743843777434,2.8479104642552455,1.5023647501149413,g
5.956198592180463,7.4367121551214455,5.030859804150774,4.89773906693263,5.007541532751581,7.59872544075561,3.716746105538964,2.3110351015822728,g
3.886470601070351,7.223340882095355,4.791911222419092,4.345347619803475,6.415691700218335,9.521708954543517,5.179793584069294,3.9897562605149766,g
2.7914813439586843,6.9837874185915325,4.586065601790684,3.970028280075529,6.884715152124626,10.063956122405681,5.515552904113738,4.577394907544311,g
1.7168063523418116,6.643122882798434,4.280177126399465,3.4794705139346336,7.074405916620728,10.30536195007328,5.514051448134784,4.862041086451659,g
1.7168063523418113,6.643122882798434,4.280177126399465,3.4794705139346336,7.0744059166207265,10.30536195007328,5.514051448134784,4.862041086451659,g
0.7276879738271346,6.190796946657871,3.874905191883477,2.8783344910052535,6.953528226649506,10.24019412518923,5.247476879512779,4.850444269594047,g
-0.12814304995220968,5.596195201413701,3.3792882193932607,2.224852534401097,6.547482817570892,9.868055638224687,4.870916648793638,4.6337722923335045,g
-0.8146458164100119,4.851534786424481,2.824128092657067,1.6181662317886214,5.933975281670689,9.228953124038103,4.540525416262492,4.325876107068742,g
-1.2953364284947582,4.025189198433221,2.2690254339789613,1.1458058121522472,5.207786879006514,8.411253099976985,4.311649282109523,3.977715514642268,g
-1.5592496210160127,3.233188684461646,1.767556579417229,0.8213516113450778,4.418063368545249,7.5060349634540176,4.091502779466362,3.5280721199689276,g
-1.6569213322560077,2.5423895446475795,1.32189030154471,0.5735861475072233,3.5321173503623093,6.549863390520089,3.7000351188933394,2.8408165129405942,g
-1.6738622471837878,1.9296554311905072,0.8932548143225963,0.3157883556720498,2.480270384758166,5.5227591178898185,3.0121537688352014,1.816648398597406,g
-1.6473927560954167,1.3528257523771674,0.4698416023117786,0.040327769515222656,1.2573979939945503,4.4144288844654955,2.0783776198609774,0.49810285478298477,g
-1.5257863319792495,0.8356992819208209,0.11314283528347832,-0.15721641851707108,-0.01572584624269151,3.295200830468324,1.1231330206089054,-0.9203231431773597,g
-1.2277774053192638,0.4601968013107598,-0.07685659244643137,-0.15667255451475998,-1.1384173065579475,2.3131311392379876,0.4095115314664162,-2.1919254932362136,g
-0.7401717578035812,0.29009601792327766,-0.044775778693743204,0.07757898434446389,-1.9475186996296672,1.6047899693046805,0.066463593476952,-3.151851499939206,g
-0.15797433119333024,0.31786786439404413,0.16764307559151365,0.4584862080626423,-2.4083472672332276,1.1912253694546064,0.010530742829412465,-3.7838984000886335,g
0.3565059591013546,0.46843010417108405,0.44107493540072457,0.83986055789286,-2.611905159274227,0.9539707576677408,0.025940898329346606,-4.176673101907988,g
0.6597906107361581,0.6411539631541955,0.654245215973587,1.1226339547495923,-2.6867857526268915,0.7246264219919633,-0.05745206143331194,-4.414618281448975,g
0.71540307013511,0.7752843662530163,0.7665140602377187,1.3166588428434447,-2.693115359760559,0.42317073456283216,-0.23142485498180526,-4.496917740935434,g
0.6304251077496199,0.9038890811488012,0.8467452326085934,1.512525013611302,-2.579697294673738,0.12912875225414294,-0.3308792692408695,-4.347649875823374,g
0.5883718619422629,1.1278564624835243,1.0134230433722062,1.7898870697883424,-2.241049731367934,0.019109787254566385,-0.187953905756474,-3.8987515241464883,g
0.7058896901552933,1.5045582703726414,1.3266916587355673,2.140295483386088,-1.625416152127699,0.2188849131565404,0.21687313311783046,-3.165115531309243,g
0.9387082390111781,1.966803801253085,1.733329113878319,2.471430344941958,-0.7928041865238966,0.6950308508593089,0.7344035417466303,-2.2463264353321444,g
1.1329849562175467,2.3780930432536795,2.123702321491695,2.6882789078225042,0.13099710680362325,1.2774253155014148,1.165675029861641,-1.2632768365684617,g
1.1688765784186512,2.6673940397615206,2.445447480673516,2.778091605464047,1.0545558121619112,1.7907313979599746,1.4123737201843203,-0.29281387581748863,g
1.0539871345330292,2.8896838243914713,2.760741958411429,2.8247517442996064,1.9766174987788936,2.18179258892959,1.5350427921052456,0.6472505291142204,g
0.8921716427752461,3.1561129471984573,3.1924971569934817,2.9399499096536035,2.9505672968525833,2.5365800471740827,1.6797272894767097,1.56112480900168,g
0.7744083057136512,3.5209587367354054,3.8065717010613582,3.163976948344454,3.9968181299049066,2.9767924353208257,1.9421522735376775,2.4253567106940617,g
0.6880759159175291,3.927113087402425,4.527297898201583,3.41203983450375,5.042545134122166,3.5311791929432443,2.2876099165907697,3.173200966054418,g
0.5173151156437952,4.236740497653224,5.159400492296501,3.5143765635387245,5.942539405459934,4.0976785949280785,2.594415088197187,3.731024536592789,g
0.14959375279278908,4.323069343862704,5.51485409205557,3.333201569334316,6.570039683295997,4.52634489437244,2.7755853349364115,4.07471540464345,g
-0.38215323453859923,4.170445864779349,5.556254138334628,2.8731575823040467,6.904483747910608,4.739571953821352,2.859223330946324,4.246714042652615,g
-0.8562837710448274,3.89778063078923,5.4346536634353395,2.2929143645207,7.035783070277023,4.776750572106012,2.9505290240966064,4.309335585369802,g
-0.9916764816244686,3.6583623381617683,5.375977203003103,1.8004276292471526,7.075558699634646,4.730768609630876,3.1178964336049293,4.280109031958954,g
-0.651228141419349,3.5002366724894527,5.508239219187655,1.5154030119249584,7.057590109169174,4.647169132466803,3.318047403815483,4.119749380897358,g
0.07296998238640312,3.3393406714219167,5.781156067870642,1.4110571667836411,6.922216354454475,4.482196866955652,3.4292737354951894,3.7885038001687903,g
0.9715909273596438,3.076766086063002,6.039220120089503,1.37331864783967,6.591705138243839,4.1503151050333305,3.3536803778415902,3.312058084394122,g
1.9089142172324531,2.722700350492631,6.166912404322088,1.3147692808471867,6.05409514965457,3.6084516704780625,3.090240405705908,2.7866838640895337,g
2.915133926196715,2.396753079577934,6.1771690803460455,1.2464823113206183,5.3784807448504495,2.8989652564204733,2.718415000869329,2.3141377947792483,g
4.1156821801402925,2.228395730530113,6.184259742839556,1.2586879727230105,4.662320591087164,2.1177591109060776,2.3183549983146294,1.924641914507161,g
5.571235715719337,2.265227915312125,6.29836608498839,1.436361459884369,3.9676129776222253,1.3414087282472187,1.9059306298289425,1.5583604515927862,g
7.156511175623531,2.4451148013813357,6.527066940152041,1.782019571260215,3.296602066103979,0.5804341309909217,1.4390812336449446,1.126420082542085,g
8.57624162385235,2.6279622809963494,6.757098634796667,2.2077172572488775,2.6181257688301924,-0.20086005600557827,0.8829527684974696,0.6035653967067681,g
9.521202667924626,2.672878401456186,6.8279624290206185,2.5956578412785403,1.9161351743397845,-1.0205972919295658,0.267951494173124,0.07047345562906818,g
9.844605123599234,2.5196453227506757,6.63098682353998,2.8616463426145837,1.2119939383703497,-1.8352187486080567,-0.31612397086646105,-0.34114175697630905,g
9.604643225989477,2.199510330834509,6.147362426991497,2.9597488698215724,0.5362161309270952,-2.5553877373015736,-0.7827963904457919,-0.560610443171782,g
7.975954698869259,1.1941341971444697,4.473122594322161,2.479062504979352,-0.7584819121765642,-3.4130557878756145,-1.2872428914180791,-0.7133230281065116,g
6.728445438552882,0.48400811368511293,3.4023562206803404,1.8787638932592325,-1.37612194357952,-3.4725068520548987,-1.328877113546961,-0.8311753952355241,g
5.262889585415785,-0.3287630259158219,2.317690607528772,1.1757498369851092,-1.8527240180806657,-3.2454230333773992,-1.1615787719990327,-0.906007903979719,g
5.262889585415785,-0.3287630259158218,2.317690607528772,1.1757498369851092,-1.8527240180806661,-3.2454230333773992,-1.1615787719990327,-0.9060079039797188,g
3.6960429710340796,-1.1338411347167046,1.3551052530163041,0.5575524851726334,-2.0454692353074435,-2.7207974737062495,-0.7126148364734098,-0.7554979516833897,g
2.158916774204598,-1.8347685949009729,0.5941189827265545,0.1373985163298403,-1.9046661309276243,-1.9569925433877393,0.004419020363556925,-0.26564254491208034,g
0.7298644956064031,-2.4096492120678734,0.0120142164286972,-0.13725067991907478,-1.5389878131309611,-1.0962919397314443,0.8530577094479348,0.49027560265073067,g
-0.5799291319025871,-2.8877352679542176,-0.48396491727083246,-0.4445737297149316,-1.1502270096200795,-0.30192755894676554,1.6494329453833576,1.2846631070697418,g
-1.781615595671776,-3.2891726487642616,-0.9715439357183833,-0.940797941911733,-0.887615478470795,0.3442736284657017,2.293818904174942,1.8983473804219853,g
-2.8410168367049895,-3.5897866551834405,-1.43931390702807,-1.6179839385221282,-0.7421707744381553,0.8912719249349788,2.8385679945796793,2.278580767920178,g
-3.639532707569708,-3.7225913519644984,-1.7775194819878866,-2.279145553178549,-0.5678609765764835,1.4563449021462371,3.421732400465669,2.560867846644208,g
-4.01851141498762,-3.6185986521510616,-1.8527880524926874,-2.6635277586569326,-0.21963710750429327,2.090228118730384,4.115194909015565,2.9351522893916258,g
-3.906075478087235,-3.2850993805644477,-1.625819677305352,-2.640952300648618,0.29597971157754205,2.68655742810715,4.820050951703976,3.4664524940123433,g
-3.417620315690795,-2.855185408760846,-1.2119834978129655,-2.319792620319428,0.7899236257689146,3.0324655754519303,5.31276139118202,4.022011885059636,g
-2.8038151561993536,-2.518567153170532,-0.8083912705726137,-1.9627489725075518,1.0266630779814556,2.98074310668774,5.418904633928776,4.3707327806240635,g
-2.2690630151948312,-2.366046863749532,-0.5361042375589021,-1.7690003804810768,0.9216512730808791,2.6029143492755926,5.171072691145474,4.371865836920557,g
-1.8345933655237858,-2.3103894052881033,-0.34445616979233357,-1.711803656236955,0.6203568447708137,2.1758742923450294,4.806046445068241,4.089425077343101,g
-1.3731909370099085,-2.1774049839282,-0.0680714235207526,-1.574336951900128,0.38164336675404636,1.990777594996235,4.588797295190515,3.7343587075771567,g
-0.7589539489961197,-1.8668131590810568,0.4239229983294255,-1.1448092473140856,0.371113118263128,2.1355017804074103,4.603707194695252,3.4886431968227507,g
0.01423595095117145,-1.425143157171634,1.1196482690527563,-0.3986183452186481,0.5420577805800897,2.4332612557847417,4.685743644995793,3.3629312789013732,g
0.8213341596342358,-0.9988373456074495,1.869499158992457,0.47473152918144584,0.6866552820577001,2.5871475130164483,4.54764575153243,3.2012434341847475,g
1.483234777110662,-0.7398046042264177,2.4816038166385357,1.2060133230145853,0.5980180935265184,2.4097597330257425,4.001033024193368,2.8201178215003178,g
1.8801241007721512,-0.718214203260635,2.838408754938487,1.6316631789493428,0.21824391040903013,1.9577173448354006,3.101933141474862,2.1669979350540225,g
2.032170224281182,-0.8709332378577391,2.9600056362081366,1.7944698076282606,-0.32609111748734343,1.4780747602584459,2.1178658099867196,1.3767766389732454,g
2.07661158395419,-1.030527085988839,2.9678534811275172,1.8906854078833557,-0.8198682040174052,1.2237468619452718,1.3524263395374836,0.6896058867267854,g
2.1469908076274837,-1.0387347617443023,2.977122817518281,2.1105220808730554,-1.111374907890554,1.2897948070760397,0.9661100598132908,0.2991451357271383,g
2.269080717148747,-0.8460455036744877,3.0162960439940707,2.5024131907112532,-1.197758723132282,1.5937649299394243,0.922968988383326,0.24750791092660132,g
2.378019397207507,-0.49642451367671414,3.046321066280087,2.9667906641858734,-1.1785098049011649,1.9987890688781043,1.0851760012765916,0.43720751184174256,g
2.4203305579216177,-0.033987604041898475,3.0411369143915032,3.366718927890637,-1.1333418326347,2.4623087001007886,1.363954802147782,0.7336846152227652,g
2.4137438909556534,0.5436648657474069,3.0287757684120087,3.6419118713712004,-1.0447873209748053,3.0805805586229966,1.803417634116879,1.0662437881953177,g
2.407914998347716,1.244263332634009,3.05082464351333,3.8253978364637717,-0.8293067552960414,3.992225895007686,2.535084136884799,1.4498365847433785,g
2.407845085696842,2.025612949684916,3.094953431090093,3.966623507498684,-0.4342669143326724,5.2211415113760555,3.640463203379368,1.9252949833575799,g
2.3440761351358366,2.789198149444855,3.077918371426113,4.052517580453921,0.09212285122757721,6.5897913647299,5.029124281358221,2.4844932985978665,g
2.1149369891856495,3.412398402122045,2.900949608440659,4.008703467563956,0.6170704750221548,7.781794416337715,6.432473599861744,3.0506138040538686,g
1.672928922597631,3.7967523252157385,2.534727413024968,3.7748130030193137,1.0108876993335347,8.514338707764697,7.526077410654011,3.5225239402298563,g
1.0962540724570604,3.92369730119914,2.0635878339324543,3.3711530761673623,1.2326301844907452,8.688664633893154,8.08963138153887,3.8303936469390854,g
0.5746773070723453,3.8768702894281786,1.6420390541965362,2.885702947444238,1.339467918802345,8.403934673332705,8.086786420265723,3.9510550544524676,g
0.29111554464281014,3.7808063307872373,1.3876870498939602,2.398037344894889,1.4131031075073501,7.837034858348311,7.623732221440202,3.8867647638886877,g
0.2880671632134453,3.6949629695865354,1.302856193153247,1.9251882525442312,1.4779155838277656,7.1014907174936255,6.847522105264912,3.649566898962976,g
0.4468330535830366,3.5793842958980084,1.3018710512124307,1.446643339092978,1.49360062318449,6.202619902091812,5.874983100719438,3.273061555375583,g
0.6014546015676296,3.374510685352722,1.3175822483510937,0.973989120517491,1.4237128463436934,5.110086160792185,4.789221152516405,2.827958055193418,g
0.6746134233510841,3.0988564386290247,1.3792712165825416,0.5814014926121921,1.3008468398378488,3.868180144689469,3.6731772368858957,2.4059915412326354,g
0.7189452271991859,2.8589270480317523,1.5885611488524307,0.3590859171740448,1.2184675767675313,2.6403870236263844,2.6296847503976837,2.0698428005055143,g
0.854281380117239,2.7803393529296136,2.0237530764395513,0.3346583784291991,1.2581396316853946,1.6441284723256033,1.7644704267418667,1.8060153272766872,g
1.1669965445349448,2.9325023861705857,2.6586411932265133,0.4373968271112744,1.4183121991081524,1.0210511239635909,1.1460103673272615,1.5244333518184128,g
1.6336599221183605,3.2817147503025366,3.3523471557902296,0.5360641820386334,1.6009162579534877,0.7414723988404817,0.7744776164371568,1.1158968782577117,g
2.3889884729375157,3.9189883496903173,4.152326237716788,0.3140684537604651,1.482796725096931,0.4107490671926632,0.46182854916952093,-0.19379934062540755,g
2.3296919929814224,3.826792195751781,3.9970001878003147,-0.07521863262334398,1.013131452131358,-0.0434274493558906,0.29905379437124235,-0.9617483627247673,g
1.9134070421645748,3.3577676516506165,3.431565330749508,-0.6652232479880791,0.2540937435473848,-0.7866658520233636,-0.0005798843807572673,-1.7102337908151828,g
1.9134070421645748,3.357767651650616,3.431565330749508,-0.6652232479880791,0.2540937435473848,-0.7866658520233636,-0.0005798843807572805,-1.7102337908151828,g
1.2462773383008394,2.5835433009479987,2.499186221117871,-1.4675829032409928,-0.7710936336589905,-1.7600312620419545,-0.4862110505121765,-2.4391851331886807,g
0.5044004548580793,1.6344250128026947,1.2881129974925822,-2.4344891794249826,-2.01398586070141,-2.858446267153674,-1.133714773626685,-3.1699421691257923,g
-0.12529503995410013,0.652637407804077,-0.06029058373136849,-3.410870447322369,-3.3712098609405574,-3.9758915956398626,-1.840970468268815,-3.8746540247406616,g
-0.5218614188450105,-0.24603790298859307,-1.3841698663922681,-4.191996088436977,-4.693946015387768,-5.037849045301189,-2.47641051783398,-4.463542773440603,g
-0.7241315449543231,-1.0321861492263829,-2.589749698896104,-4.673071744365235,-5.864746810996747,-6.0221527566734085,-2.9640023686882717,-4.851680962558487,g
-0.959237876548593,-1.7938564394310537,-3.7153238606943533,-4.951101123857975,-6.872547434132201,-6.951241030830988,-3.3341114805985583,-5.034504715696808,g
-1.5256282773443604,-2.6602165854025177,-4.8815542251621284,-5.25413700639683,-7.793126214427216,-7.845693783533636,-3.682659388976525,-5.086292673643448,g
-2.588198021503967,-3.658257629054306,-6.152597911361402,-5.737751583339016,-8.677205738475166,-8.666643934255932,-4.062982659636743,-5.075365516389434,g
-4.050894792828481,-4.645363884009631,-7.432490867802628,-6.329628626905227,-9.449654632429624,-9.29568173250815,-4.403706177719719,-4.97703907292819,g
-5.60821152102198,-5.383834119674005,-8.490045441952732,-6.767845153416962,-9.916052664962468,-9.576190256912287,-4.5302560438699,-4.67233943122587,g
-6.928237716987714,-5.678086671737637,-9.093453089488216,-6.807391123140531,-9.879255164930765,-9.39502207617973,-4.282670677569876,-4.04540486204948,g
-7.844837255046352,-5.472631617517912,-9.159925562238135,-6.428524691976759,-9.28493939455588,-8.754729155570127,-3.642145384860381,-3.1044149052734324,g
-8.448703195916316,-4.879444693901891,-8.820595166942093,-5.879217247816387,-8.290850375206624,-7.785814800483557,-2.7644447896523325,-2.0211724973712415,g
-9.009875453052533,-4.128751931480523,-8.34513246823634,-5.509400042172812,-7.19319641452083,-6.678404890865528,-1.8833095430444655,-1.0414085277881528,g
-9.755440600990594,-3.44031357017915,-7.960995019647926,-5.517771657130384,-6.2421078845144855,-5.5704587576360804,-1.1506274620902037,-0.3265746077720455,g
-11.246719803522769,0.25997435527878765,-1.4615926445882876,2.7595611063717267,5.724817326488082,6.468744633251847,5.294697536168281,3.305937246005194,g
-11.197726453620046,0.08811338376243856,-1.3509923603308873,2.857063293061599,5.5712060802093095,6.167041156805709,5.05913176959352,3.40877423046728,g
-10.929586958939947,-0.11160767532394833,-1.2944440662125574,2.7786220756082107,5.21687251575729,5.658209627342158,4.541487653306236,3.2448669612913057,g
-10.503947236747512,-0.32638071190050855,-1.2604075236447074,2.52979238954349,4.716352401122425,4.9799840593524145,3.7496674035724538,2.8153322570909936,g
-10.09917545847735,-0.599581471731928,-1.2831900173480957,2.0726784383707884,4.133977576028487,4.228594593467432,2.8269241129570117,2.2037057621273846,g
-9.82793193973921,-0.9405812231908571,-1.381603778286263,1.4134773286376834,3.5419591271099016,3.513946495476502,1.9705378952047166,1.5375329900817056,g
-9.357297662345397,-1.4700207862967853,-1.4816377128446674,0.002457222490937916,2.684590964962296,2.490934558862496,0.9482807923918575,0.45813232316440944,g
-8.899597295452548,-1.4696550413040972,-1.2530500202320902,-0.4602804621196558,2.5625893246857676,2.2118230445484395,0.7518108468429904,0.08914857896272535,g
-8.333651179013401,-1.307989983318466,-0.8253594714059769,-0.7731504805488886,2.637643624330882,2.0390338708179025,0.6254969937553779,-0.2480123435932189,g
-8.333651179013401,-1.307989983318466,-0.8253594714059769,-0.7731504805488886,2.637643624330882,2.039033870817902,0.6254969937553779,-0.2480123435932188,g
-7.881408881153495,-1.1142093702225269,-0.34875871996014896,-1.1199720703717626,2.8095454926001358,1.9303908125985967,0.4987373049535787,-0.6221294047069377,g
-7.765658747986916,-1.02720578805501,-0.010936329151090085,-1.6698003436711724,2.9600404593434297,1.8868017353637825,0.4025505182071889,-1.022640609003575,g
-8.038219231481982,-1.0864289402536562,0.09448510909511057,-2.4266724199235683,3.031016608287689,1.9595109184458654,0.4401958563258508,-1.3458108037452954,g
-8.520041433890244,-1.1805895059565972,0.030474902319389718,-3.2095565104229338,3.0575333417463746,2.2074154034272313,0.6866885981273657,-1.4678660170150115,g
-8.913768150111903,-1.127491179162862,-0.046590612205361495,-3.782729681368796,3.1201782261889814,2.6336481301117938,1.0997242763778523,-1.3535124407528685,g
-8.993259894398948,-0.829507916831111,-0.012339146619233987,-4.016105490603094,3.2623164638909214,3.1595568432451797,1.5272078116741714,-1.098877442195051,g
-8.70003747831752,-0.34536057190748454,0.16325949264849837,-3.92706530525234,3.4602581497162617,3.669200660270268,1.8172563788036213,-0.8531237542395449,g
-8.084744043171966,0.19563421034804557,0.4648855845794165,-3.579574595294966,3.6751831242639845,4.093256373762585,1.9403817697080084,-0.6762340060505674,g
-7.194836029872431,0.7293915826093033,0.9140068699374313,-2.963614460207303,3.919292300099593,4.457715359335874,2.012679756750768,-0.4637728627348176,g
-6.03298860096075,1.2972219492996506,1.582120746286953,-1.9873374713611252,4.25482023885379,4.84827516659073,2.1911225952084967,-0.020317702726547805,g
-4.59858294162554,1.9776705047045247,2.5258025052941457,-0.5842342410811769,4.727039036821786,5.31865917937167,2.527307493674859,0.7706501797387434,g
-2.941371212390424,2.8032003773273257,3.7192956507910546,1.180317550438205,5.3062159461566605,5.827779250636868,2.9096759604319176,1.8256882068141862,g
-1.1750907830407011,3.7286942097087845,5.052535206685137,3.1075085199258106,5.899817107702568,6.268689891755369,3.153033659825523,2.89834172280086,g
0.5528282220125231,4.656543962868026,6.395840471244714,4.966239917196648,6.425077520294062,6.567174832664368,3.1645492497935734,3.748690041281775,g
2.1153604325351933,5.500303951539236,7.675374603755712,6.605316316319152,6.876704298499069,6.758126151128428,3.039483859317282,4.305016214530845,g
3.4457164584319635,6.24405256786342,8.890287298194385,7.984599309594836,7.3245541405532695,6.963156182126181,2.9934434681112436,4.68357780330185,g
4.523648431651179,6.93139439840067,10.047210481907701,9.11194257216531,7.83228730637772,7.2841418165761045,3.18352506010696,5.056795519779653,g
5.32263908255264,7.577419835269689,11.071444826950433,9.96118968563289,8.364773995051145,7.708599047159053,3.574567354073429,5.490072486231573,g
5.791310898494451,8.103578376804098,11.795749992201163,10.46069356901375,8.777423374774482,8.112696916588758,3.964772399858518,5.883756527023202,g
5.907299034275722,8.386991190318204,12.059505807090444,10.561340156593003,8.910756982666499,8.35556400971836,4.138612954971095,6.0529895477938656,g
5.7407132763879405,8.372559820720799,11.83310757417563,10.303223948482717,8.709736728870562,8.377196488422928,4.010996994877058,5.863462049013239,g
5.44262305342987,8.116929244461081,11.252478543485491,9.806548954315863,8.26399541575704,8.219873977405378,3.6570066134190915,5.317641953118395,g
5.167931279320041,7.7310132514332635,10.540279729879128,9.204515806167425,7.745394687964078,7.97216253088514,3.2341462098527494,4.549078279287696,g
5.0118975712736065,7.306663005734736,9.888317852653694,8.593723992187702,7.305276857617893,7.699106597767414,2.8801382616152615,3.7517205828390727,g
4.994407020337891,6.88885353438336,9.37972529032802,8.03397211133228,7.001542396059618,7.415286254750846,2.655400042653446,3.0927879927387787,g
5.062718662569589,6.47135921498618,8.975890821245727,7.560132582969476,6.783341409182874,7.105209716717843,2.54151299340233,2.6458749479679184,g
5.103846081842086,6.001630547625152,8.561451874987787,7.172849618224485,6.533128278284155,6.7600435142234945,2.4732548293971264,2.369957056500607,g
4.994569914372149,5.426261948721586,8.029285317086154,6.829468607224877,6.1507379233750825,6.403467309102726,2.3850015492091385,2.1498716950689682,g
4.675924060284617,4.764863408492593,7.360636754512727,6.468919809823693,5.634264995797624,6.098281148575266,2.2601326399870674,1.885334618859077,g
4.18423303752594,4.129940950222394,6.641710433049096,6.059329777723962,5.096528712533976,5.93585601361769,2.164935398279341,1.5770275838329613,g
3.608273854726286,3.656327746043381,6.001773053137075,5.6247102985659785,4.697237298851764,6.011833042334187,2.240335419535941,1.3467763100712453,g
3.021128129915693,3.411851840799522,5.5219623302507905,5.225285918831256,4.538568175170219,6.389880751872173,2.636443597676963,1.3658802019466356,g
2.4393740759919704,3.3648034384732908,5.1771575083815975,4.9045801211762665,4.595073948881814,7.057705066783868,3.4102853464422034,1.7313788089129176,g
1.8139068550679496,3.399374925866681,4.840029163201597,4.643214614755844,4.71860579111692,7.894934478531695,4.4484528165761095,2.3779058767604773,g
1.0530441821438015,3.3518215091754078,4.348534901608342,4.364678359841093,4.718920262858769,8.690795338889723,5.4862439211369045,3.1000703060977193,g
0.09441695460999924,3.0851447745531457,3.6138812856359634,4.004535515541488,4.483589715100557,9.232784405072575,6.239831722819099,3.680983057438074,g
-1.009575735057823,2.588693427826402,2.7012875913939274,3.585602519904694,4.060344529870934,9.423455116378245,6.5716155350892524,4.031358312478849,g
-2.090063754908919,2.003384967476125,1.8016810021893026,3.211206358766071,3.6248585172126093,9.33208370592678,6.560928895656121,4.227193210495214,g
-2.9797439844865354,1.510845925947501,1.094379920426645,2.9634067892643654,3.342570727838222,9.12595426979959,6.419019881826604,4.420828878277029,g
-3.6463004801462495,1.1830558883371272,0.6148915005640223,2.8067859208147814,3.2390037006742296,8.931965327129209,6.318023154946388,4.710179360332139,g
-4.209730965554172,0.9428552225439442,0.2452146504498514,2.6058955249685125,3.1921357845409895,8.745008943970483,6.273458223607207,5.07490702782441,g
-4.83922062362148,0.6514037308332468,-0.17813005605750498,2.241674466210181,3.0418293293999517,8.456199846079613,6.165833389214121,5.4119832708062985,g
-6.56681772858729,-0.37576556690793533,-1.4332282104796676,1.0771527536583907,2.230526623023312,7.298988912014224,5.363488039650679,5.630832006955048,g
-7.50059401566231,-1.0245705217330965,-2.1370103454420617,0.43745454839524084,1.7148796206415617,6.59220586508134,4.774555458651819,5.460161647793717,g
-8.254143724788474,-1.5753739381001743,-2.7371540414549393,-0.20509302233988444,1.2668130114348473,6.040924931756732,4.280647088865135,5.1501908513475065,g
-8.254143724788472,-1.5753739381001741,-2.7371540414549393,-0.20509302233988436,1.2668130114348473,6.040924931756731,4.280647088865134,5.1501908513475065,g
-8.69682633728458,-1.87159062718831,-3.1440945388738797,-0.8859289369246321,0.9483279672760959,5.784316613118051,4.016265154853442,4.783865565491949,g
-8.812348477079132,-1.8351540809559381,-3.309664583380884,-1.603887160231165,0.7835365896767408,5.848960676322413,4.012995746795699,4.468057345240611,g
-8.68461314067327,-1.4916017946577336,-3.2168597351530046,-2.273458184458565,0.7799544680381735,6.152850129494629,4.205937444441696,4.289650748307746,g
-8.428198529746442,-0.9401590494905424,-2.8816236327233113,-2.7707923315026903,0.9246558695604735,6.546764287830619,4.472278035318995,4.248102372174067,g
-8.12849243283954,-0.31833132561874733,-2.37148096237765,-3.03777502164841,1.156928255964162,6.866564749119318,4.674376167566215,4.22602558740283,g
-7.81153238346558,0.2366657414171825,-1.7931819794131634,-3.1323049836901093,1.3745209721017293,6.993240532291192,4.708747348937903,4.059152356280009,g
-7.420170994599137,0.6696869646619334,-1.2125658711327036,-3.149491841823708,1.5131872606475985,6.91602607391346,4.562009540978823,3.683895573090319,g
-6.810837474323665,1.0923247147401256,-0.5639191543121147,-3.0763045380693446,1.6415923837751383,6.760640826133388,4.340635836955775,3.2432005693298507,g
-5.8219953056486755,1.7458241329743829,0.33561749520505046,-2.7379100753079704,1.9540433477918502,6.7326146099291835,4.226444837701157,3.0308216657301634,g
-4.399432285669486,2.812770648009157,1.635900665528196,-1.9212983914706143,2.6238288084936827,6.980208436174054,4.357180136030459,3.2823883631464064,g
-2.669339800675182,4.237049244128756,3.2898755104913944,-0.57822604610227,3.6322120752967053,7.468045133566534,4.7112032826151635,3.974068768210139,g
-0.876222601762984,5.733670943107373,5.037168177246288,1.0884207354817854,4.739245048737266,7.97669804299214,5.101394245941345,4.81258225594602,g
0.7669479737462936,6.98309711721628,6.56661635361323,2.7496058528003373,5.643931122696965,8.254607798864276,5.306074327863161,5.448052488701933,g
2.191708369826098,7.839071536859476,7.7250000070678215,4.180622792187646,6.2076058247892805,8.212227941701986,5.240721320418091,5.740623900117109,g
3.471105367520726,8.395404999685711,8.598441001433798,5.3915168408410015,6.550690790047423,7.99404169475122,5.023517611578637,5.852104957327864,g
4.712913815331316,8.879162323554478,9.399582146901968,6.544968052124591,6.933754856252692,7.8563863334722495,4.8709361034514504,6.080613351362304,g
5.92442989921363,9.446850073216831,10.25190387959583,7.7414466337585806,7.514429418811622,7.945307808107512,4.908535128480576,6.580337102870354,g
6.950402872938365,10.030720457232889,11.051734937057955,8.868474394357847,8.185827323534593,8.161930034201978,5.061656750522608,7.208397233372362,g
7.552884466238767,10.37535626178585,11.533964080707594,9.653499875875756,8.645909674236604,8.235565855472206,5.125088555501445,7.630172334769227,g
7.588591515665099,10.258590565028502,11.49534423629502,9.87916354985461,8.649678274313072,7.949471172885785,4.953558072056181,7.593364453156721,g
7.132092332538787,9.700488923531243,10.981156692813604,9.571497556730787,8.22552268945658,7.330667796172992,4.604342937615188,7.139193266381907,g
6.428797579317317,8.956559241301166,10.265252306202852,8.989867255469687,7.661343490754534,6.641662057647823,4.301525573245032,6.573525326624649,g
5.723949639699354,8.308358504768657,9.639341932321583,8.42318567845621,7.272133308323603,6.178483725841483,4.2488645661084865,6.223098543231619,g
5.12043350035644,7.857020322727768,9.195688125943361,7.972220605298006,7.152445118076375,6.043108397147353,4.4539973353925255,6.181133038326664,g
4.563378861757309,7.485420327226093,8.78216783767247,7.507819996472749,7.1194606524280175,6.078458046558713,4.718076413155148,6.252139030729747,g
3.9296729700302797,6.980718903234836,8.154709864804826,6.831354327449098,6.881919674279504,6.016225038809071,4.801703914274569,6.135788613749488,g
3.1436708472340342,6.2064515677777745,7.196192233145635,5.8832635455623965,6.287833998256381,5.711201190177453,4.627097240365875,5.690690989088149,g
2.2455052931721866,5.212900704447124,6.026449953838818,4.811437770011311,5.449253485572474,5.2666378559668505,4.344271364845198,5.057195574185012,g
1.3616765414520875,4.206907509058057,4.913099093094884,3.842907536721333,4.643298563155177,4.946190452873349,4.200731882989812,4.5411275097061665,g
0.588907337258635,3.3826485722751314,4.051107903145016,3.0766625494791304,4.070516844960141,4.943682558226667,4.32028792034138,4.361489826973184,g
-0.10627430931141628,2.7485324780375846,3.3978641779943763,2.38361969772515,3.67781557912436,5.201465684438369,4.580030918288089,4.475620516088071,g
-0.8584140863164947,2.127373585801619,2.7162727334489767,1.5065737598494822,3.207179852621837,5.433268312780912,4.69761646392051,4.624283301048785,g
-1.7566732310009816,1.3471118452953195,1.797759089134739,0.27875993095369384,2.4343087992459034,5.341715861751611,4.461815035615239,4.551728933020669,g
-2.722973881292222,0.43641234974881166,0.6732586082177409,-1.2229860250294198,1.389348409255716,4.858367512723227,3.9141296367480556,4.214170084700276,g
-3.529718493072063,-0.3590215889081036,-0.3669011230518232,-2.7150611166911767,0.36980459546727096,4.211960982143541,3.3303056369804915,3.8088553268437346,g
-3.932091801531046,-0.7354803204158001,-0.9561451806791179,-3.895476154638834,-0.2605652679366791,3.7686213396435826,3.0183497377413,3.608482219732282,g
-3.8062233597605273,-0.5227253772696889,-0.8918536059715562,-4.62700122195986,-0.32052812399385455,3.771353123541549,3.0969455264106567,3.7416699580149535,g
-3.2082327659669687,0.2189176780510987,-0.25704940620239514,-4.978059026539799,0.08220645774405763,4.185438280809586,3.427928416366091,4.097825560732778,g
-2.3246065453350173,1.2463315029324642,0.6584816489443511,-5.108531775013314,0.6580848758499749,4.768420437762119,3.7495735321471657,4.4285061030085755,g
-1.339978689376742,2.3023399380846206,1.5733953025388308,-5.108790928872047,1.164846157569058,5.298733966191181,3.8963023721711507,4.553402710374152,g
-0.31831934325421013,3.289183545618539,2.3947055612382533,-4.928073280786224,1.5735096015162116,5.766741039278504,3.9226063144064534,4.494238688796698,g
0.7886793688650714,4.290384173625016,3.2158729767490106,-4.444876639900503,2.037689892158657,6.36813056028239,4.03385030916521,4.429924553412931,g
3.205903688465308,6.603586341243068,5.164942676160683,-2.5042941477217764,3.54491070337021,8.620657109404,4.993052957706797,4.810082568686495,g
4.156948559716934,7.6693872167453545,6.08546640641913,-1.3296785905461488,4.364244437574787,10.072465826184404,5.660588966922882,5.161942130629924,g
4.664316488539731,8.414730319099938,6.727347369772746,-0.24912265306931988,4.959155260016656,11.353884160238847,6.23245250700405,5.459871419102923,g
4.664316488539731,8.414730319099936,6.727347369772746,-0.24912265306931988,4.959155260016656,11.353884160238849,6.232452507004049,5.459871419102923,g
4.710191317621311,8.79048013346345,7.039853254968547,0.6761708059411541,5.279370127177727,12.2594667297706,6.675045148288154,5.687277879708832,g
4.4573659603038855,8.895567433625056,7.128753824434345,1.477009787153041,5.45109440777074,12.795221695690534,7.082853064220322,5.939959503318191,g
4.144175123961536,8.884418818319508,7.166448403633391,2.1966263001694566,5.661528414831458,13.108553706268898,7.555725324630487,6.3249188170619295,g
3.946551645055179,8.870478692930174,7.273018732836678,2.8208217966997617,6.010353385072563,13.323756033015107,8.07874946779421,6.8482941165384945,g
3.888617008058854,8.880360531077034,7.456180717339997,3.2728382981523887,6.4470079210840465,13.434594403477558,8.518055221348433,7.391227207677865,g
3.8618512504660965,8.87998607078537,7.646468666497893,3.4704596124953575,6.8355481264806865,13.34134559634407,8.7339429225004,7.791394206023247,g
3.7427577608298166,8.854968939643829,7.787122080510798,3.390646912609129,7.080841335720779,12.97889693392004,8.699652719745172,7.953457624302283,g
3.50516556696257,8.863421238884069,7.888162584492844,3.080776107528967,7.196707096155306,12.402409790281949,8.509716634128164,7.889821519901274,g
3.221514700345536,8.985817418373834,7.991245387723407,2.6073229781281078,7.2554166691191995,11.751899172102302,8.273157590463864,7.665493392698447,g
2.9695671159044963,9.220122781238132,8.092462632784896,1.9962518722752791,7.279742999462734,11.141132226923887,8.001314574006729,7.3138230984379335,g
2.7610509930603726,9.457732361625649,8.118808639038143,1.2262530629519452,7.195768559154092,10.582129236749564,7.601485704302259,6.8082451685295045,g
2.560241942075481,9.582840901238715,7.987784741315333,0.2785865457767963,6.895040898245645,10.01048906967483,6.979289292767655,6.108161925995993,g
2.344814664673505,9.581911434621603,7.682987958529625,-0.8084321803200009,6.3409303442938665,9.377681545951877,6.148238912648262,5.224488262215802,g
2.1361174133979977,9.547726990930027,7.2700190189996166,-1.9285586849554754,5.619747526423829,8.720943556032758,5.245253969777645,4.244121060953691,g
1.9926010437942896,9.599460592569972,6.852339040392254,-2.9410685432028982,4.90176918120588,8.152253339859438,4.446334083168052,3.302959074520082,g
1.9993316717721599,9.815103061233794,6.523962978438908,-3.7139521653450247,4.357363084226142,7.786757291602095,3.8679255597520004,2.542135958991938,g
2.2626871242844695,10.219349929904226,6.361306495265426,-4.145864138477249,4.097255591856335,7.682291144378608,3.540151905191729,2.081965613756842,g
2.899927382667383,10.810263163328809,6.448439504641894,-4.162031921753884,4.1731324772202845,7.841340353301591,3.4564803137626754,2.0152670147396456,g
4.021247127643831,11.60424339671943,6.8979592899019835,-3.703076515089537,4.620219168001041,8.259645552497755,3.6289811833652736,2.3968964354701363,g
5.698004742083171,12.66676834011168,7.827682251116005,-2.731345388160396,5.484720918892218,8.959833764233021,4.085144716929202,3.217739031515155,g
7.907676360655225,11.87058688464992,9.286794238275148,-1.2600009398899132,6.7926891924877,9.969747294733487,4.818459293163248,4.386761663041803,g
10.489517488637086,11.242804794256605,11.184639270648807,0.6210399093079378,8.484823370394881,11.269832336237858,5.764336097676841,5.757988083065138,g
13.184490641933442,10.739224369884656,11.002435237444463,2.7560495607866846,10.395278599517852,11.014178923491881,6.84664181318725,7.201277427472485,g
15.769136322097527,10.230871061303091,10.816039308800256,4.971964326951419,12.315979201747012,10.77387808216118,8.052219095922691,8.660016251263631,g
18.171006925750465,9.578627276517633,12.725860958250674,7.125013676411411,14.091142762190506,10.41203797975365,9.439250220920933,10.13409664132203,g
20.445353955471408,8.69320914781885,14.406292167407894,9.108909403346324,15.648018701417692,9.84001777998444,9.305192620455742,11.593796035987584,g
19.97593283935734,7.539340602889344,15.836718839308176,10.831986030503515,16.94094232722104,9.033339541379792,9.049372082973063,12.905855891675728,g
19.272192679566427,6.107180381322345,16.9471185773379,12.202885362185018,17.880249049995445,7.999787079195374,8.63456477391435,13.854466774529232,g
18.25227827445987,6.20990795304189,17.62416394834822,13.149964358921718,18.329044087938026,8.32903019486027,8.008706267474611,14.258009600638468,g
16.83334402279187,5.834054071912858,17.79155186352432,13.660705149095453,18.180203864417322,8.00544811287551,8.05977422943768,14.092231559182968,g
15.00379857893751,7.26234784519188,17.490704561926357,13.806030025213346,17.451624184558252,7.046664627053526,7.360134783636079,13.514814630372365,g
12.860115419427967,8.610936764115626,16.89307886213858,13.725513933540512,16.317559899719704,5.615773546652587,6.179880552068186,12.762090808549862,g
10.562315188042598,9.95872006278476,18.52587661286405,13.578625683983887,15.036761198087401,5.690309615668324,4.789963390673577,11.995072576718467,g
8.231621057792822,11.355298146874,20.244356111330298,13.490795990044983,13.81796035541486,5.735253470350061,3.2839624732832275,11.216495987813094,g
5.881765073549083,12.805757827614267,19.847168098327057,13.52457356886983,12.72143209955393,5.82151613196657,1.5686153987671556,10.319122818301992,g
3.4517668308598983,14.268726029415808,19.5660990964923,13.686388220850489,11.672653601115623,5.919735150519506,1.250440328427207,9.213340744850505,g
3.563241151014588,15.683532770132363,19.33363545198066,13.955401507641303,10.57024040430287,5.942557542581207,0.8242973323568498,7.924206970854726,g
3.672314425506592,17.009749026915788,19.11528584202808,14.309590952354426,9.393001644733806,5.817997049536141,0.24867108296374196,6.589366208623181,g
3.7778867692986537,16.424217039696977,18.90602036093224,14.731894725714039,8.22401466003483,3.964098798005368,-0.43931477473391406,5.376610631941871,g
3.8788582973535206,15.962950737372143,18.700637928900605,15.200056794746814,7.190777193953025,2.479930879362564,-2.0542318197347336,4.39372485142184,g
3.9741291246339374,15.617016770879777,18.48698133764302,15.67970326134709,6.384295133987413,1.4785798664792504,-3.030899923931032,3.653333403664676,g
4.0625993661026465,15.36909090326443,18.26625565756364,16.133547688953637,5.816794767509149,0.9155670391007595,-3.5200094920867926,3.1039137112594846,g
4.21473855145593,15.100503369383025,17.92363900616037,16.886817817600008,5.158163692658208,0.38291137911834555,-4.019200883791548,2.3798038725998616,g
4.276207725265993,15.031257531233498,17.85665567296723,17.186335461838418,4.942015272577769,0.10373315926502631,-4.291031313664051,2.1826615574203716,g
4.3264767731153295,14.985225751313255,17.846155206209506,17.44007114759382,4.786843401819435,-0.1902485388159771,-4.513733424904279,2.112035376121657,g
4.3264767731153295,14.985225751313255,17.84615520620951,17.44007114759382,4.786843401819435,-0.1902485388159771,-4.513733424904279,2.112035376121657,g
4.364445809966686,14.959325242303157,17.84590574041403,17.64301495871368,4.729569418455566,-0.37171690599684426,-4.567135853843963,2.178374960995355,g
4.389014950782804,14.937084692804897,17.808719573625133,17.780033039752,4.80236763798539,-0.3300688639515851,-4.4048765469070625,2.3750342666885724,g
4.399084310526435,14.894533908359282,17.715330687650095,17.83643184513558,5.003159500285724,-0.07271559773878641,-4.09727409466381,2.6688761239499637,g
4.3935540041603165,14.831645863400666,17.586528110962256,17.81924651490248,5.296713562403573,0.2696748267740757,-3.772717189314214,3.002645497655613,g
4.371324146647197,14.779504552567147,17.464793205564575,17.767594224080746,5.633578343438204,0.5437585689108266,-3.507705316644926,3.3121773473918052,g
4.331294852949823,14.77000363634264,17.375200474714653,17.729221720380167,5.962794633668038,0.6928076980539103,-3.268573698046796,3.5429578287621917,g
4.272366238030938,14.807984077436913,17.29603864969604,17.7155216773066,6.2313449877151905,0.7846543444524294,-2.9678856644913703,3.6499803115105123,g
4.193438416853286,14.865852422329194,17.16144114061886,17.679505188188195,6.38021448526754,0.9215247196844091,-2.588145171736019,3.587230567085892,g
4.0934115043796115,14.883360462903237,16.89393091009842,17.546161935671755,6.349969366427707,1.1167823168837385,-2.2506724817055512,3.3090881524071927,g
3.9711856155726624,14.779275673790664,16.45130431994789,17.27470990765568,6.1043179775430305,1.2554566345269853,-2.149642777345998,2.7944226911037253,g
3.825660865395181,14.502280634433106,15.864800551247432,16.89813044309369,5.66407345494688,1.1776535588306762,-2.3971303366012164,2.0767415242691754,g
6.072466824289881,14.086610871534635,15.234519523068679,16.499170150993024,5.1172506061973895,0.8087195197170376,-2.91665280378213,1.2478769438353041,g
8.035785520665074,13.626680664054453,14.662368205846729,16.134562952903238,4.570796491536373,0.21281233622163148,-3.4912338024209513,0.4170413086201119,g
9.82102462553475,13.16638029157797,14.160465356833985,15.76964066769744,4.063197032662594,-0.48458936858273766,-3.9389929597768605,-0.3537838551045832,g
11.50181119155971,12.622305110697557,13.617689933497962,15.286209980257865,3.5163689248819496,-1.2310200888202232,-4.268622792774641,-1.084939278308938,g
13.078697725756774,11.839379987886334,12.870039768793145,14.567912236914662,2.789988837427957,-2.098205263886475,-4.669331264329375,-1.841998852021192,g
14.511749833731674,10.731103528971849,11.82805637003447,13.599274526052593,1.8113689658890344,-3.183889077422774,-5.326016208267516,-2.6410674115119592,g
15.779718677219023,9.377649548301166,10.56228283617573,12.499616329516725,0.6771234971123079,-4.451618566079482,-6.211836484384254,-3.3734845372517577,g
16.91310752537681,8.012060859103915,9.27980589076247,11.461506810032333,-0.36683811025214663,-5.67425447695016,-7.049560834877596,-3.833591805203164,g
17.98271012830807,6.908735880188095,8.203054914780816,10.634332604160429,-1.0703903365921112,-6.558104089614059,-7.49660657015294,-3.856684571915344,g
19.0565952077053,6.232697467923869,7.431603704283935,10.036890348776907,-1.3494239438738045,-6.9479900106546095,-7.406581709247959,-3.4660962524340784,g
17.743074511362444,5.944246138286535,6.89021832448536,9.567193128938793,-1.3442802979300508,-6.927386067257219,-6.9411746470868065,-2.895006761543912,g
16.69954741789876,5.852181078241992,6.412472519272606,9.105169624150061,-1.3050861646904623,-6.721852257668355,-6.433823860624782,-2.4440614385773385,g
15.806480653166536,5.794333006291152,5.89711115200871,8.62597022456961,-1.3884451166742005,-6.496581300860855,-6.1251439615782886,-2.282142251916548,g
15.027500644479662,5.778807596417165,5.401032012236341,8.229984313455748,-1.5371081499943244,-6.233492726745349,-5.996050152853988,-2.352632388028433,g
14.446575023633226,5.943032078361709,5.086323017122326,8.067170954528406,-1.5465395243410538,-5.793745515706307,-5.828064770845314,-2.457920947860675,g
14.18194752465289,6.386011354150125,5.074642599163475,8.220326909564317,-1.255996424229171,-5.097969489201861,-5.421924425185797,-2.4476648048569816,g
14.272305185462873,7.055521063993126,5.338637290446331,8.634740202805919,-0.6981872853696891,-4.252308135036348,-4.783462849831177,-2.3591262448607395,g
14.623357905078155,7.778230690752087,5.709102101072569,9.1339770218502,-0.0912866031230436,-3.505755145247779,-4.13109460732344,-2.4029406535266573,g
15.033370121569373,8.363547220468467,5.973389298686817,9.501028855720067,0.30594549965790174,-3.082064457439869,-3.735587049195362,-2.809418962307189,g
15.276908228372927,8.686749909591258,5.986616241476967,9.575417400795558,0.35811635418129384,-3.036725914122047,-3.7326893434843003,-3.65507969350573,g
15.204636798774729,8.7224492592042,5.727097349220665,9.316614826003772,0.12032276030508515,-3.2529200453766807,-4.05234902962807,-4.799429273715356,g
14.790161232913684,8.524354226501652,5.265586517702468,8.798143728836331,-0.23106242742793032,-3.5589988789544633,-4.498433316774657,-5.972230661141702,g
14.080017836373807,8.151788519321915,4.671439856901115,8.131114422184178,-0.5464565281675304,-3.8535296472646516,-4.894345282163898,-6.9364103622444135,g
13.098292103877606,7.59636551982814,3.9309858760992022,7.365931576000918,-0.8149927335022398,-4.140708711689001,-5.178119576539641,-7.605729727433395,g
11.809862243495562,6.788800233512227,2.9496318318513417,6.443642292868634,-1.1572037254311955,-4.473860285439094,-5.393498950525137,-8.048243516756406,g
10.172416304443038,5.678813875552949,1.6318365301277822,5.232148374345245,-1.718940564899577,-4.880750539516621,-5.611495772963869,-8.397992886469012,g
8.206644795199672,4.288554788429068,-0.037468981209458276,3.620604845874108,-2.564182314348347,-5.339218514812727,-5.856146148092642,-8.748593520194266,g
6.019675623956137,2.689702701110087,-1.9702311875067138,1.6143575746114869,-3.6424767915481873,-5.808174791011136,-6.082853301993077,-9.090433298647254,g
3.7877823516580706,0.9662337640618579,-4.006645758759475,-0.6208077636218661,-4.829912571379625,-6.269904630362573,-6.2088047489795555,-9.314779659893434,g
1.7197463893295102,-0.7824724367762949,-5.96964252540325,-2.7981260163681974,-6.000369232352535,-6.745551517930274,-6.16624644761748,-9.278001765942332,g
-0.004878690357856996,-2.4376327034571483,-7.724052972454622,-4.632096172752996,-7.0886215635202205,-7.280960362414372,-5.947364257387505,-8.896140161977245,g
-2.22117724125686,-5.115982630298556,-10.46565419897497,-6.9180813372544305,-9.142997525599814,-8.679166357218765,-5.291418268281057,-7.429439933476961,g
-2.846291451938274,-6.072771353218608,-11.495133718497971,-7.645391706548871,-10.208854244411137,-9.532495971439511,-5.07431373554323,-6.764969940030833,g
-3.2582590519546506,-6.744989378138522,-12.28626194479087,-8.348173997720894,-11.256211238881626,-10.41241238085884,-5.01848456313715,-6.392747636225268,g
-3.25825905195465,-6.744989378138522,-12.28626194479087,-8.348173997720892,-11.256211238881624,-10.41241238085884,-5.01848456313715,-6.392747636225268,g
-3.486154401491212,-7.110317801881673,-12.782052352042868,-9.059483742097115,-12.158199270365829,-11.227474697935792,-5.105792075817058,-6.329719279026133,g
-3.524587650860392,-7.177877659014581,-12.934648728550764,-9.651076913196858,-12.788459732980456,-11.887080269016101,-5.2724659240749085,-6.454146443124058,g
-3.35239916971166,-6.982183457823851,-12.741203856212405,-9.938447731960554,-13.08639486575466,-12.323436977755518,-5.453900585799038,-6.604716019149397,g
-2.9600729193197104,-6.55601238566266,-12.25111764131582,-9.824657419870949,-13.075812451695956,-12.505630041307416,-5.620990464850539,-6.696884102315694,g
-2.3973078810565687,-5.93810020026106,-11.558136390591079,-9.385615745828186,-12.837471851245912,-12.441653004381653,-5.78456223804769,-6.770137720582549,g
-1.7979743346816517,-5.203686643875204,-10.77962724744338,-8.836720404032032,-12.455991390239973,-12.166527867999735,-5.966561604302657,-6.931582259531991,g
-1.3294824800510538,-4.4570488764140235,-10.0179938523405,-8.399989316608115,-11.970857539331712,-11.724542638245449,-6.163857372126911,-7.243829452838474,g
-1.0942252871896145,-3.7867331113582425,-9.324639704782859,-8.164494820209317,-11.365609587676918,-11.160202402778916,-6.336826457720972,-7.647589051798576,g
-1.0722768954935435,-3.243441593484781,-8.698387724885338,-8.03953931353116,-10.606128266396716,-10.523376188382198,-6.430635167500432,-7.97718311484697,g
-1.1491574685217993,-2.853284541550192,-8.116493680091116,-7.828001282974145,-9.69405114616638,-9.878629119650123,-6.408118074757196,-8.053818879478198,g
-1.1928240285017038,-2.620953772912512,-7.565285877129815,-7.359643822108795,-8.68655607468973,-9.305171825721592,-6.269172253578555,-7.787910746672563,g
-1.12786969262848,-2.5174385958263534,-7.052068914556611,-6.593221557150608,-7.6715879756362515,-8.882717286850188,-6.048912302355194,-7.222073917500504,g
-0.9758860195750948,-2.498899303512797,-6.604335059870154,-5.630969626367528,-6.729022769396193,-8.666757317434428,-5.800547551659167,-6.492229166903283,g
-0.8328714278201845,-2.5523558520829814,-6.255372857538239,-4.647983692289087,-5.9059985279447655,-8.66171244465528,-5.571143499914191,-5.741029772494228,g
-0.7765896904605192,-2.6967528423692686,-6.009289412095537,-3.786908836688032,-5.210493364794283,-8.807866183861353,-5.3807447529091466,-5.046743557372317,g
-0.7724971050874845,-2.9227366879025807,-5.809204532941777,-3.087898851606339,-4.621331065979194,-9.000079162973162,-5.218642286497177,-4.41146286675123,g
-0.6818232004667515,-3.1553423273671486,-5.553803623660238,-2.498980020141533,-4.114141411206846,-9.137173698285935,-5.0608237559098805,-3.801877286403085,g
-0.38082861300613097,-3.2989469712687445,-5.1638802116690865,-1.9489478231677044,-3.6860631706283415,-9.169515765056582,-4.892181610387804,-3.1983711727053605,g
0.1265739818280845,-3.307427539387631,-4.637516737039234,-1.4153475654034726,-3.3509737650496816,-9.104929874663346,-4.711719334096307,-2.6141924919918234,g
0.7134392998808192,-3.1980029006335995,-4.039416085643218,-0.9340587612929211,-3.1055092158078184,-8.968180173569076,-4.519891068867385,-2.081362668605498,g
1.2339409530269996,-3.0158846645184214,-3.440243479293188,-0.556684232907833,-2.9049806631004107,-8.754968876325176,-4.30877247413602,-1.6254804162902183,g
1.6243173560202138,-2.803504835998221,-2.8651884850053686,-0.30235250646126655,-2.6806891047363353,-8.427361267995598,-4.070344422670578,-1.250336536216715,g
1.928804030634841,-2.583691357512964,-2.2879288538341873,-0.14100120023117196,-2.3830016636238045,-7.95538019521026,-3.814392647873143,-0.9389883907596233,g
2.248130975755397,-2.3437525634788545,-1.6635317389532305,-0.011753300840404091,-2.00912592211514,-7.36333250602128,-3.574964974220852,-0.6666824003152557,g
2.651871300454336,-2.0421240932465077,-0.9719568223953571,0.14496321655323785,-1.5939514113850761,-6.734045036025769,-3.393715210966712,-0.41419749101367226,g
3.123242814248781,-1.6498577189222927,-0.23706166553489566,0.370103653565777,-1.171731005434571,-6.160000846494108,-3.286639257942295,-0.16825301187485303,g
3.5971106027181525,-1.1740580549792954,0.503045537735736,0.6981703041213989,-0.7314712971971888,-5.67410536352302,-3.214748032932608,0.09376409091969791,g
4.0669412407925805,-0.6186288074027511,1.2535014961468924,1.1805133445123972,-0.19906684449748577,-5.21348066930522,-3.0841794385773666,0.4169438386627721,g
4.640495827904614,0.06004717869910614,2.0823512096617662,1.878815076163546,0.5223355069571834,-4.653847433350529,-2.790156656052054,0.8542197092522377,g
5.456857906767391,0.9148436389862855,3.061190879490108,2.812086306553091,1.4626933955040125,-3.903885030885248,-2.2883894328759786,1.421097894989468,g
6.534338813545591,1.9158129594008941,4.1740354017668695,3.8982910070496275,2.5162771395684613,-2.9952858694446887,-1.6439537657339252,2.055145389049237,g
7.711902671536121,2.926812021643122,5.292032947768414,4.958542878194525,3.4733736567187705,-2.0893422369870644,-1.0048751374719542,2.630180584419363,g
8.754617332657103,3.7967175357471588,6.254629409858647,5.806498825936437,4.155194864816584,-1.3727654386700692,-0.49533619719025274,3.039898961053686,g
9.527793144503658,4.474111813312135,6.991830104422251,6.3644404043111615,4.555020383363867,-0.9080238367182462,-0.09840137188142269,3.297554811613137,g
10.086362956755334,5.0381510283161335,7.577561529641143,6.709156898923945,4.863383004184661,-0.5619732906876221,0.36368572374693353,3.556605394404484,g
10.605458995991714,5.626619472476284,8.156973298909843,6.996520889900834,5.3330405924123605,-0.09608681472914449,1.0981165630803826,3.999696293613291,g
11.200273499649253,6.309347937807662,8.791447744895201,7.310962780361043,6.064104579355485,0.6262623568077416,2.133839780899989,4.65876707573196,g
11.77177156497312,6.98358393923462,9.343801885667755,7.558555881321358,6.872239635597168,1.477329203769862,3.2093832484998637,5.319418276754115,g
12.022777024541394,7.387865644405727,9.521492451246303,7.506396145836637,7.3702890033757456,2.102377633036477,3.8852081051643608,5.62414881770898,g
11.6712947368489,7.275569223657516,9.080282307624701,6.961856499067975,7.237188057394134,2.1594106070731787,3.8317000556898164,5.326917920696545,g
10.698493154789519,6.628093370508308,8.035831361559811,5.958668576290252,6.4734357570760555,1.5827555926097958,3.0760392134630874,4.501740868687465,g
9.39951810681983,5.695053400325561,6.690903738486736,4.78761037115297,5.419927419928124,0.6497284133806964,1.9975876850392897,3.519060090799382,g
7.224070991929523,4.056861703855774,4.459750585689287,3.2809412393754216,3.910901907268999,-0.7767823688759443,0.46722618424574547,2.4458580188428716,g
6.444785197723704,3.3359589596893726,3.656942002870566,3.0647331930753134,3.4584236828088306,-1.122296890584932,0.06510709422726227,2.2876087306455206,g
5.527089813000914,2.35549782467404,2.7168622104462488,2.868138497626135,2.761014254694538,-1.593484715885258,-0.5077783265706565,1.934940323046082,g
5.527089813000914,2.3554978246740403,2.716862210446249,2.868138497626135,2.7610142546945378,-1.5934847158852579,-0.5077783265706562,1.934940323046082,g
4.22721585269211,0.9415505973799455,1.4082073490721843,2.403708733959835,1.5624298988885386,-2.4544541192889766,-1.4670924556765526,1.1729791689111826,g
2.5717375572418595,-0.8142465089148127,-0.20886343781251054,1.6141239973344046,-0.034382116826584944,-3.642575228231306,-2.667751837913692,0.13549706289652316,g
0.8688246008719218,-2.5663597135510914,-1.7858050750329149,0.7006234562697935,-1.6157684142395632,-4.787698924928172,-3.690596009936253,-0.7976526452281145,g
-0.48564146047396706,-3.9090007977059775,-2.9117109110298696,-0.037378736902763346,-2.7439798129087274,-5.489120056970658,-4.1598713498876085,-1.2971532609018568,g
-1.262521081750209,-4.632343598142656,-3.3907669434556302,-0.41587247529342203,-3.253989934786359,-5.618233564897544,-4.025808976970706,-1.322944828762917,g
-1.5155256718432777,-4.841755020059109,-3.3546927866550065,-0.4723119001121151,-3.3329309187652862,-5.403384805036299,-3.589991590385579,-1.124812974367013,g
-1.4827411588171238,-4.837133910346954,-3.132909508760988,-0.4065110009212532,-3.3415900593121792,-5.244292239438568,-3.275373726979333,-1.0353888687728476,g
-1.386398241890637,-4.8665043360089495,-3.0012030331926116,-0.4266023250416082,-3.540989900271991,-5.416255571605662,-3.3363034419467006,-1.236016444172677,g
-1.3005715146484154,-4.967168731927673,-3.005634576510759,-0.6169214487811644,-3.9333485920530236,-5.890292414859082,-3.7192611484057116,-1.6611659598193431,g
-1.1495304366493058,-4.9893395297448135,-2.96904117967273,-0.8988171419199057,-4.304848138269565,-6.3883177234489095,-4.1477497477613205,-2.0801910856722006,g
-0.786709646045545,-4.732988274972705,-2.6441401285465647,-1.0830079947352442,-4.400993688206093,-6.6105631882524545,-4.34043417274754,-2.2697318978296495,g
-0.09320320790340535,-4.091743596292997,-1.8968218716094274,-0.9718333174631931,-4.098180948350734,-6.451732965877824,-4.194131244320525,-2.1467768598976904,g
0.935880743968936,-3.1415834563987923,-0.808175317752639,-0.46497968982527366,-3.4725166169062667,-6.048688535936756,-3.8136435899859444,-1.7860587769792224,g
2.1533584918638624,-2.130239539602804,0.3590512636231321,0.3741895578586096,-2.74699734580764,-5.646307521168037,-3.3977175468878755,-1.3412317083369523,g
3.3055612439109567,-1.3502651348177879,1.3037876640034378,1.3295467045220923,-2.1640609309865275,-5.404930747828715,-3.0887864131298786,-0.9448820532464465,g
4.142914857436545,-0.9712071967562947,1.8452457038831682,2.1296974072624013,-1.86162903147234,-5.296700513859062,-2.8948924525401205,-0.6479621087755645,g
4.525163117170423,-0.9664459482665138,1.9948116745835454,2.5852267788325305,-1.8216938287694426,-5.152156778407873,-2.718553162210601,-0.4165919868861683,g
4.468011883793447,-1.1848019599325943,1.9075320709214985,2.6792798997531238,-1.9132540365193365,-4.805774181276738,-2.4506950507857477,-0.175855062541338,g
4.124639130171151,-1.477942133295483,1.7640480665024647,2.5493606742192876,-1.9927747174456898,-4.227413108339741,-2.0557094498287865,0.12674168627669227,g
3.7074238727560838,-1.7783196639250698,1.6624412604213794,2.373040132481223,-1.996795344429523,-3.546316875076607,-1.592784862837796,0.4784863073775565,g
3.364256471201658,-2.1124813720404467,1.5720164879508478,2.2359449171547556,-1.9754036316143668,-2.9569087810181003,-1.1693814145255357,0.8102986151036898,g
3.0778631678121418,-2.57393892882781,1.366400495009841,2.073710221647839,-2.0492210559845714,-2.5817488411530825,-0.8684060328414244,1.0506802888916589,g
2.685039622410807,-3.25149737160127,0.9228886340074685,1.7324644974718635,-2.311142957883313,-2.3925737368906335,-0.6997949298212124,1.1834046145286055,g
2.0229850762042916,-4.132499828847367,0.23049185046784237,1.1045644600159235,-2.735427222166862,-2.241005545840074,-0.6020291446669785,1.2645982900034485,g
1.078606002832165,-5.06767780665911,-0.5775800972090327,0.2287382187698211,-3.169845802112674,-1.9703602662842261,-0.4863726553161717,1.3832981289603983,g
0.012324481084211048,-5.853611212986494,-1.3025039844333766,-0.730533944119437,-3.4313905652508274,-1.5275082414374475,-0.29499646671334684,1.590798310289723,g
-0.9440221848738624,-6.362648686529134,-1.8085404444646656,-1.6000970149918594,-3.4349865628795238,-0.9997930434296188,-0.038239872614067874,1.8518174343955516,g
-1.6177648280216594,-6.60423083013122,-2.099587952649271,-2.303217822137992,-3.2518838448455605,-0.5565288339404979,0.2118656885483044,2.058945358001643,g
-1.9711700188511596,-6.690710482850227,-2.293173808879021,-2.8693214205310116,-3.0552578852165078,-0.3372853469192211,0.3689780032307456,2.103410744957696,g
-2.0906469356910446,-6.758250545893624,-2.5190949668590705,-3.359480201035892,-2.99821862304933,-0.3602630881791523,0.3925439207687491,1.950124246923248,g
-2.094894502889803,-6.881023633058436,-2.811639549439526,-3.78427714996491,-3.110597724996245,-0.5111407908728683,0.32088433482149836,1.6614444861097404,g
-2.023162162018308,-7.010825303820843,-3.0703083540972567,-4.083985829231553,-3.2857749572192203,-0.62597314379524,0.24757624424623983,1.3508879000708913,g
-1.8089142522317787,-7.006545055184799,-3.131394883294445,-4.184600707952983,-3.3722643607281255,-0.6186600164536931,0.2479703760942452,1.0972586746681576,g
-1.3768876705217816,-6.769438386028439,-2.9070977605210473,-4.077332625156844,-3.30293315810406,-0.5577770413528812,0.31111032468542305,0.8835407179977451,g
-0.7581092492081714,-6.362804553333848,-2.4691464338856277,-3.8409149686828856,-3.146727176218691,-0.6181813582712288,0.3452692842910656,0.6174756677520156,g
-0.08617530078153983,-5.969697909570103,-1.9885576579824658,-3.573313174843922,-3.026543361266202,-0.9302966146790451,0.26750135507291517,0.23095968944019574,g
0.5198002883719806,-5.718607083454264,-1.5853638059635324,-3.2923811858718914,-2.980097923429825,-1.4492944360686546,0.10061001934646074,-0.21946244991984454,g
1.0501211051589217,-5.566010549886956,-1.2357524188860376,-2.9072331797227298,-2.9052597368571385,-1.9644881914984136,-0.021403088111348632,-0.5465826067244212,g
1.586784792696468,-5.351745330705063,-0.8192647132668134,-2.298220405249281,-2.6460490738681193,-2.2523281169718077,0.04102900555169864,-0.5461914795316759,g
2.2157131565046564,-4.948644819058136,-0.24668370555423902,-1.435333149470102,-2.1334242621124866,-2.247461938150676,0.3050299816575975,-0.15100904698602716,g
2.959605869635594,-4.360020898057387,0.4541454962063421,-0.4244293455425483,-1.4480872526124309,-2.085335219602044,0.6327988611304668,0.5007869606993294,g
4.579837324342376,-3.1376687449666667,1.7501855273860147,1.4151080313928794,-0.1735788080213183,-2.0411623356974467,0.8008918812588497,1.5925638208467403,g
5.3443815843448155,-2.725226480744971,2.1913031186281287,2.148186925047793,0.2993911905723931,-2.199404676922004,0.6098355849703826,1.822696115135108,g
6.083651453894165,-2.4211844270694716,2.5424076132074602,2.8642999682386177,0.75806456073071,-2.2826649087025572,0.4288585111134502,2.0066997958402917,g
6.083651453894165,-2.4211844270694716,2.5424076132074607,2.864299968238617,0.7580645607307102,-2.2826649087025572,0.4288585111134502,2.0066997958402917,g
6.832179829938113,-2.117409246708099,2.8776855524041887,3.639149675407669,1.275653260784812,-2.1780332493602677,0.3944310789735806,2.332964589158332,g
7.572667662378064,-1.7626865852352878,3.204490400497943,4.442473060366796,1.821886351066805,-1.920459149966101,0.5151298144004631,2.8522426419694544,g
8.219723554516658,-1.4109453851412455,3.4553528779551734,5.152420163109871,2.2866192215379284,-1.6438622952590802,0.6908890485760194,3.4419344354328403,g
8.673280221986765,-1.1508489902360042,3.5552666279747185,5.639762894657784,2.5838876683856937,-1.4553639964923522,0.8125018510908344,3.915661062273756,g
8.874646854637621,-1.0123422260992165,3.488278731992492,5.847583830816865,2.7313008161973387,-1.3512024617073117,0.8513923827678285,4.185060984049626,g
8.811790048554315,-0.9609662510295511,3.2992498047486025,5.812748400459806,2.8296289392430287,-1.2388122162555197,0.8727645438501508,4.343880449642883,g
8.50192324540798,-0.960585662726049,3.0454768381889314,5.63045469922036,2.9714542927329926,-1.0289741056505188,0.9739616185249608,4.60507612424023,g
7.996323243770147,-1.0080209087165382,2.758912754887277,5.399240694140196,3.1710079872557246,-0.7083676229557804,1.2042056823115423,5.134351664443399,g
7.391162133448669,-1.1124176094370435,2.4508310673664253,5.182999575671955,3.372414640000019,-0.33538091249235497,1.5258869569500955,5.907880662626426,g
6.805643238572381,-1.2694608238034746,2.1416759828543683,5.005172203996226,3.515181911938375,0.021172219738070486,1.8383512145327603,6.709294201610812,g
6.342026011887053,-1.4539987689710263,1.8847804901453658,4.869265404128094,3.5953591556282847,0.336684895758142,2.040284239514079,7.273069984997546,g
6.07292535810122,-1.610516173421992,1.765144034064019,4.788275134304923,3.67700765861339,0.6379796184739479,2.0892017188790324,7.4643467409727915,g
6.057759046081398,-1.6493999133406672,1.8689295328413482,4.803331032966371,3.849652630754413,0.9738540562568199,2.026489858538557,7.357542862460177,g
6.350334418827925,-1.48363078289733,2.2382741899044603,4.976898609714229,4.163976230343963,1.3809708694419025,1.9541565520613524,7.157668068932566,g
6.9825264276451,-1.0886601018140631,2.8454834821024777,5.359252953044992,4.593200993190709,1.8598369346724737,1.9693061900203013,7.029634096142902,g
7.942636251609493,-0.52061868699011,3.6122130876034233,5.9485554990589655,5.049085359962391,2.359833776915427,2.0913904717957004,6.97105876429777,g
9.162830505006173,0.12544516125666405,4.4596542293844506,6.680170433701766,5.4386511534876565,2.7812119304401124,2.2388167037299187,6.831857840767317,g
10.522262359280253,0.7680212055451018,5.3471446790093795,7.464157245124946,5.716133428715475,3.009769592770742,2.2865812419922964,6.464840389453601,g
11.879750089645507,1.3638597769168548,6.267491262892047,8.240582028261327,5.889558511015283,2.976456746594354,2.165287396882571,5.872601742145725,g
13.126643544842798,1.907854183453702,7.199215275848981,8.990449496338421,5.975225096970178,2.6984931594375867,1.9130700038613255,5.209681959147598,g
14.20421147750668,2.405527779118416,8.047200748649832,9.679921414223612,5.935217567756071,2.2609867585190644,1.6307777314953245,4.633147610908098,g
15.051418614903492,2.8145798557835917,8.627108402249688,10.200624991420405,5.659279824979622,1.7497443703557525,1.3856710211779242,4.148441142437674,g
15.543818648859022,3.0079698263917307,8.736104724857162,10.394898250305818,5.029335234127039,1.19357769600734,1.1557818540976972,3.6054662230578254,g
15.514323339318073,2.8276076864073345,8.275917428986409,10.167258962666542,4.025930867427034,0.5627685018078878,0.8566406920202407,2.8450835383881268,g
14.844148693753727,2.1946907455362945,7.315060642262273,9.571641546885115,2.7715285977175528,-0.18634513241194933,0.4097838675305242,1.8445632959866303,g
13.51652697433931,1.1503759872485881,6.0095191420336365,8.767462157896901,1.447176428116966,-1.0689435091201005,-0.21192651946259472,0.7222030083859817,g
11.5785478458482,-0.22168891552330736,4.444915797228118,7.868031477899292,0.14723714367167054,-2.0656771645751983,-0.9867121962655692,-0.3888146205737053,g
9.078859237270397,-1.8845124315473822,2.5606028111869654,6.823692272920456,-1.1859676640703856,-3.1448845768653717,-1.8711831837312185,-1.460929788588016,g
6.067149334783746,-3.8334433738116545,0.24240366193511492,5.4609953029204,-2.674139747878775,-4.277531630014337,-2.8158634473792015,-2.5636392696180876,g
2.646915466450742,-6.0081307341111385,-2.500776603747205,3.655565861756979,-4.336854809593612,-5.421393830819939,-3.753659945432365,-3.7316915794261702,g
-0.993638627864277,-8.24983052600641,-5.448693097303956,1.4848260818152161,-6.003511647074201,-6.494068675680002,-4.585297436728615,-4.843749120678994,g
-4.617999056730858,-10.356478484937657,-8.263062637170112,-0.7877381169201222,-7.397596953084315,-7.383874312705383,-5.204910193681595,-5.651926267620177,g
-8.025718177901446,-12.184139978544952,-10.69244590242674,-2.895536889412954,-8.337183263749605,-8.01751476983488,-5.570309947871349,-5.963272891162447,g
-11.125961462072247,-13.716142867612168,-12.715524009995315,-4.753762777065147,-8.883653855573176,-8.431412347868429,-5.7536595260222025,-5.810969193577316,g
-13.934325554053782,-15.046854248665705,-14.49296378402824,-6.466615348002774,-9.29887558842881,-8.764234250588476,-5.899960872401081,-5.442284591212135,g
-16.470479063136633,-16.271865306897304,-16.161817857238105,-8.14625403979038,-9.832314562375048,-9.153843607772732,-6.1089472588465075,-5.124676993584799,g
-18.63393338885008,-17.3578432499138,-17.657666468151092,-9.725555824564086,-10.51937292336644,-9.623117789379014,-6.3490187857536675,-4.953782378592232,g
-20.195723450812118,-18.126364092088487,-18.738199485691375,-10.959372642677732,-11.171680673888522,-10.062830831884972,-6.493438213565301,-4.84135991738024,g
-20.9510546192312,-18.40356393502343,-19.19356249022418,-11.618938095868286,-11.563328177028357,-10.332926494066626,-6.449896719446043,-4.678177048900968,g
-20.900497521799526,-18.20155416268607,-19.042830610876546,-11.689580529813488,-11.63546693816267,-10.393836252557502,-6.264160421987645,-4.503711146236837,g
-20.281077686169688,-17.741450264919358,-18.533248702853776,-11.387446621247815,-11.540568721339909,-10.356764057630865,-6.1093367663426,-4.527406873331371,g
-19.422863147758598,-17.29962908948426,-17.961492266854243,-10.99886967170454,-11.515160584907129,-10.419749279291649,-6.180347989298865,-4.99602426618066,g
-17.81051107370031,-16.97532874268746,-17.14606463957231,-10.539850051193072,-12.14563201170931,-11.389325290563688,-7.2924470999385305,-7.539792722287652,g
-17.091274749814712,-17.001703743317936,-16.833656318284202,-10.452382033375333,-12.676613831686327,-12.243852037332196,-8.1634672966177,-9.285357263245873,g
-16.31629962650186,-16.97682787442442,-16.495370331916565,-10.40371897108188,-13.125570355967195,-13.111233365067392,-8.983406433184872,-9.242810437205849,g
-16.31629962650186,-16.976827874424423,-16.495370331916565,-10.40371897108188,-13.125570355967195,-13.111233365067392,-8.983406433184872,-9.242810437205849,g
-15.421240450486573,-16.769027094705685,-16.107144246504568,-10.382055516166758,-13.320538521261714,-13.751015587230905,-9.510883163994507,-10.600239471330957,g
-14.426785840172453,-16.313297468692458,-15.66598599769101,-10.370739326841512,-13.151721304656869,-13.957479119535702,-9.524710365777134,-11.464667778723575,g
-13.438041513338735,-15.636614825424854,-15.17038332492755,-10.32744508895402,-12.601831533860924,-13.628704069403828,-8.889942703414766,-11.769749030375825,g
-12.602849319616741,-14.83301580956945,-14.630145603688453,-10.211577612530679,-11.749021812284404,-12.805178494771658,-7.620654004174486,-11.548405667685712,g
-12.062548872168426,-14.013794074044512,-14.086238957019058,-10.024132232562916,-10.72840320803957,-11.641173021543903,-5.881484960456247,-10.90237973119517,g
-11.90489149988026,-13.259113713259216,-13.59211765178934,-9.795251167224373,-9.649415269293623,-10.302012503935646,-3.8940629947639303,-9.935756268810499,g
-12.113310277033772,-12.570938317632171,-13.146955537940556,-9.515284570829149,-8.509606027854444,-8.850838986733097,-1.8050164687011285,-8.68837103685331,g
-12.547223088508824,-11.853729882886473,-12.649241383512726,-9.091818269768401,-7.184438152051049,-7.226751337330088,0.3634755474915945,-7.138204633127344,g
-13.008562821710715,-10.97932905720157,-11.948928171921779,-8.409557626202126,-5.535251244508879,-5.352892720870105,2.618400082715245,-5.292938591738249,g
-13.370298365140773,-9.916814865948435,-10.974607304413492,-7.455419349704893,-3.565121274791443,-3.288875382438165,4.838591546925497,-5.0162074693005625,g
-13.649994544692174,-8.797877923912765,-9.812497726933781,-6.379135741432569,-1.4825290694980662,-1.2845274376352602,6.717024311220283,-3.137787057143165,g
-13.952714334776724,-7.829313609441182,-8.651482381182971,-5.412092366451117,0.39617016444384767,0.3285753040745748,7.882974092713425,-1.6718108769939282,g
-14.349892167339576,-7.140202562077585,-7.648796722098768,-4.713420498617083,1.8250481645389875,1.3259788671054857,8.117531711351683,-0.7679644378171441,g
-14.819379887144681,-6.724786053250723,-6.847290350111581,-4.285619454050599,2.7394449363927604,1.704746714507571,7.4867056554454425,-0.3720881724100617,g
-15.280336780298322,-6.511897655176097,-6.205794305381181,-4.023831056260541,3.228933646884549,1.6358890575617444,6.28749342121963,-0.3002372277719096,g
-15.653419582404911,-6.448960520645818,-5.685375579616775,-3.830363317823587,3.4274081688517475,1.311343524651649,4.86239547628493,-0.37904089288283205,g
-15.88585306191763,-6.515472416140577,-5.298734885398818,-3.6823009057370206,3.4212415576915,0.8271866097849294,3.438155543535024,-0.5376211600050023,g
-15.9496509187469,-6.694590674929705,-5.090173848618863,-3.610757276422852,3.226947017450042,0.19240785322304235,2.1003900795074806,-0.7936588017856361,g
-15.842907452925326,-6.96105716639273,-5.08487493508738,-3.641276212311637,2.821642922422095,-0.5792584035012972,0.8803542300048189,-1.1734554421585348,g
-15.599640321683253,-7.294156087464695,-5.264973532904397,-3.7664640222828725,2.1834430340061615,-1.4115737825634453,-0.16334507137523646,-1.6532226491020943,g
-15.298596175929806,-7.699018315822023,-5.595274574881034,-3.971135999760827,1.3143724494378128,-2.204998010710207,-0.9533982862119261,-2.1712395587430553,g
-15.054276498332248,-8.219544044826968,-6.064996504707642,-4.266430856185629,0.2486496063576377,-2.91883543154011,-1.4648919046997644,-2.682342495167952,g
-14.963331451891179,-8.908693275947252,-6.683355237979262,-4.675176929120867,-0.9347109139356841,-3.592058072452643,-1.7602298900609383,-3.1854500869668643,g
-15.012414032785035,-9.74120649297073,-7.4120037661095095,-5.167301845251765,-2.0965048185080057,-4.269533719469218,-1.9365050022314534,-3.691693568184146,g
-15.031903470924613,-10.547351671649675,-8.106740828049265,-5.619489939739563,-3.05811774338421,-4.913530487310962,-2.042292902299141,-4.175421092537647,g
-14.786891188915046,-11.083295679437313,-8.561944476851421,-5.872767284362853,-3.6865530750440043,-5.406111348213907,-2.060588456584731,-4.576118514869475,g
-14.164534537955243,-11.217474232936828,-8.648771218895552,-5.859927612182686,-3.9936872129004284,-5.651835375807545,-1.976038149997383,-4.859730408419654,g
-13.28805600769249,-11.050203848977908,-8.421582365404191,-5.679450900093055,-4.146207431214137,-5.677491223120084,-1.8425015374985212,-5.071151635401125,g
-12.443540902867348,-10.833150150107711,-8.084293083031325,-5.528697429606748,-4.347863382621177,-5.623068805387731,-1.7648429673549533,-5.311326200969844,g
-11.889254642233585,-10.769981835105131,-7.8429354890604275,-5.548164850101658,-4.684579385871343,-5.627631584871406,-1.8067786328196238,-5.652143241167954,g
-11.707208370612133,-10.883041740074864,-7.766775925403456,-5.712429508360144,-5.064297080412926,-5.715914774340281,-1.9188395845149517,-6.065147873205825,g
-11.783110871493921,-11.026496642186444,-7.7538547788242695,-5.847467699617672,-5.29193610958485,-5.786271079377021,-1.9611714718515827,-6.421964505957601,g
-11.89768658633977,-10.995506195961593,-7.6111933278453225,-5.741489692619585,-5.207304921969912,-5.705694250784371,-1.8062315134341431,-6.561080094806103,g
-11.872182325577295,-10.656904932383126,-7.194610156483553,-5.264266518883384,-4.785935299060986,-5.427639351764751,-1.4369619028758056,-6.373307190411814,g
-11.690945886717426,-10.038976355909188,-6.519674076860111,-4.4302745149224405,-4.147010861196048,-5.035555228931047,-0.9608401576755149,-5.8545905166534045,g
-11.511563529420219,-9.313196964673276,-5.760965318192806,-3.380875229233068,-3.4705771627580626,-4.679750679946759,-0.5280976923249734,-5.095429324749114,g
-11.537071147434656,-8.657501638115296,-5.128559175213751,-2.298901927221439,-2.877060406342224,-4.460466487909605,-0.21929727853110298,-4.21374394286425,g
-11.84753799399954,-8.110576097864172,-4.713229685591363,-1.3070092622687906,-2.350990872003419,-4.348685269729781,0.008040475561200532,-3.278586545783084,g
-12.329384241740838,-7.55214138747842,-4.42288683253482,-0.41388918185541257,-1.7634629804359605,-4.201021498372828,0.27504736753235454,-2.281132412050759,g
-12.745160030783666,-6.812349815136746,-4.053691309231321,0.462310739587128,-0.9712642479487842,-3.8496814879147245,0.6827080968798152,-1.1708933612548393,g
-12.875731090124763,-5.793480688334357,-3.434943289522715,1.4161878121772573,0.08337079324255106,-3.1978870705727287,1.23970812098977,0.07632365174149677,g
-12.645924294280892,-4.520807121385971,-2.5485825947793663,2.470454234350635,1.3323277761302321,-2.2614907290149207,1.8638801706610177,1.4102249080647287,g
-11.666895441139399,-1.80023305224708,-0.6643745525995293,4.417392219064429,3.7498714576799186,0.014281046141684151,2.9101811315890513,3.8348960838393915,g
-11.285388369947338,-0.6635988220069792,-0.028628312047976445,4.971187892561231,4.65737654723835,1.1115209175058982,3.280673001107856,4.702413638185364,g
-10.95347311860679,0.28125655298102503,0.41416615806285345,5.166016301949234,5.377177194462383,2.088794479381545,3.6349143334638114,5.318364409476144,g
-10.95347311860679,0.281256552981025,0.41416615806285345,5.166016301949233,5.377177194462383,2.0887944793815447,3.6349143334638114,5.318364409476144,g
-10.431919419717758,1.120926366752257,0.845049943796956,5.122802412593224,6.019210277259702,2.91769543719263,4.045755629558294,5.74860643380563,g
-9.530671470420327,1.8948271989981536,1.387210546159062,5.0028849755595495,6.636692291655518,3.5609114684602803,4.512762571541507,6.046698877848883,g
-8.287664574114014,2.5227137439671954,1.9794682326104436,4.87536957879875,7.155416379640189,3.9644999561513523,4.963593488013062,6.212277010757143,g
-6.9486918154707,2.8745783215254366,2.420299283270511,4.676192985233424,7.426092421364501,4.093769959310271,5.323444387150011,6.214887703952556,g
-5.795923983113943,2.886267438698324,2.5237408677732844,4.278066094015199,7.344145133202065,3.9727198336211744,5.581463475861681,6.044224126699897,g
-4.9880721255659415,2.5930324828749316,2.240003979975399,3.5925564977983058,6.925039289545218,3.679888028493027,5.788331266929513,5.725654861800668,g
-4.5122538634098825,2.0843891394057827,1.6596243660044045,2.623123987709821,6.283556967724887,3.303538863044963,5.996367837265512,5.29091007994574,g
-4.241996128268562,1.4591997711818763,0.929769228977905,1.4489913393303087,5.552281005232089,2.902523771112578,6.209773712267948,4.7466465235581605,g
-4.045877440887905,0.8048748541254745,0.16047120496123868,0.17106184781575698,4.806923889858031,2.507572367290588,6.391444744564214,4.079795929455974,g
-3.8726001329612507,0.18147257357177207,-0.6135365134721635,-1.1323725117873988,4.048496072903724,2.1525383900871913,6.5107576521076425,3.294619190295452,g
-3.750016405855484,-0.37882674735230715,-1.3965309447480523,-2.4077894990470083,3.2494530071184626,1.89452596071965,6.578184646140616,2.4415326802523873,g
-3.7128985147173013,-0.8468984948409529,-2.1662991064171457,-3.5957039810548266,2.418368587889325,1.7905397914045296,6.625914713070015,1.6023205673501508,g
-3.7506528196928173,-1.1871437338703745,-2.85239947083932,-4.610333981667276,1.6190805747919554,1.8413749497442413,6.648254392323466,0.8397481790360561,g
-3.826730981243636,-1.3882683003999796,-3.3752362933621654,-5.355927815153723,0.9319062700691145,1.9579838154425537,6.568352021140266,0.16572088111255073,g
-3.9111156252968007,-1.4763127172262298,-3.683060903508676,-5.75476548633834,0.41361501687727353,2.0015811947939306,6.288726295592189,-0.42433184606164726,g
-3.955846614296104,-1.4579117857075787,-3.7320902846727018,-5.747100274073779,0.10601783288767204,1.8817160301056475,5.799345149687303,-0.872990136434636,g
-3.852960518426233,-1.260580269093682,-3.445530806319875,-5.26909865784211,0.06687345738564451,1.6275312568164502,5.237918484232093,-1.0245598329579078,g
-3.469455588971846,-0.7757681924860985,-2.7309043382075613,-4.257735801272194,0.35933229962713953,1.3586028351717898,4.8208982562047185,-0.6958597646073417,g
-2.7595958302052144,0.020691123890446694,-1.5651785038156572,-2.7070062478250247,0.9915385475133816,1.1753747897329236,4.684463983715412,0.1815058191850446,g
-1.84293651205207,1.0120103541617063,-0.0641301885939991,-0.7302078149819595,1.8718716381277851,1.072838227234301,4.774135813480024,1.4685277392040361,g
-0.9586969018025299,2.016873550615026,1.546581199438931,1.4468461980940153,2.8415198417602543,0.9637856448741617,4.892303850174289,2.8759002398068767,g
-0.32604329042416386,2.914638894680928,3.0492178655584126,3.580538325814158,3.7680791854156013,0.7894083432783676,4.871517180002702,4.1441522463812746,g
-0.017515268474133296,3.7024402596917505,4.347927760371041,5.5202354067850585,4.618407170961254,0.6031428079480831,4.718839079687865,5.197967407467563,g
0.06325748146640989,4.455019738084143,5.486183926785534,7.23731976261698,5.442652998607888,0.5369612202008098,4.596828341667143,6.136541927089394,g
0.08031534944993228,5.2287852021578605,6.551275557192696,8.74752406928126,6.279688538542918,0.6779260961454774,4.659033145217934,7.0705647527147395,g
0.11004556569575485,5.969610630699909,7.541487588079441,10.00130317905563,7.066404119334193,0.9740024933042657,4.895154821589803,7.9591268314076205,g
0.060046892266201836,6.49603887302855,8.308934530418622,10.845486109439948,7.6359587069682915,1.2594011527449367,5.127382033281415,8.594485705924727,g
-0.2535844492572558,6.602547179034606,8.634002846555648,11.094307294222144,7.815871407099695,1.3764171474124842,5.15430413666287,8.743671629240907,g
-0.930707690993333,6.216698517802085,8.37334184372833,10.652934762557964,7.546204264031823,1.2870914560233604,4.909620631187257,8.323524987167033,g
-1.8766948774090288,5.459293263446901,7.556197825159879,9.592196189891734,6.91507807387835,1.0842852795276774,4.503097811211754,7.468545803578934,g
-2.858358524750832,4.540344643218658,6.351498236944116,8.11059374567709,6.080070161448004,0.9002124315896607,4.120151128322158,6.441601802636351,g
-3.6701336041779626,3.596350482674507,4.940594051904197,6.407519852549086,5.143498463183179,0.7922342277072365,3.86993165698384,5.456090959504365,g
-4.273691943639776,2.618629021783343,3.399385085516511,4.562892428516209,4.084242313042896,0.6999554400887459,3.705020411503714,4.542404050813683,g
-4.819356806543721,1.5057767732850191,1.6736514597166383,2.516368769976489,2.7955748074594347,0.5071969777901162,3.47300584216715,3.557026521632813,g
-5.542468019929716,0.17111235077175674,-0.3386541776747853,0.16196956672211904,1.194933057744941,0.15542770318412388,3.052722263871742,2.321619034297317,g
-6.595199655214644,-1.3625980059255625,-2.656077287962549,-2.5179308607988067,-0.6774770715240679,-0.2872403953055814,2.4610394837115654,0.7792071652077928,g
-7.926403796118207,-2.9285909168004673,-5.132891912226072,-5.385709993020145,-2.6451234480285892,-0.6591006460167469,1.845292383573149,-0.950797890081577,g
-9.314672803437617,-4.284477383448941,-7.501644336197484,-8.197806628442576,-4.479849515301597,-0.8117798586425462,1.375142188049688,-2.647462500559851,g
-10.541007669284276,-5.259208167171211,-9.510447906991047,-10.723523789255578,-6.019742095078029,-0.7047098019030328,1.12750265322368,-4.1207351213860015,g
-11.547852554522962,-5.852169756576576,-11.03721820894911,-12.836573609749376,-7.224702978531707,-0.418337313868218,1.0522663394166822,-5.300268836985465,g
-12.44082414758035,-6.181478686104191,-12.08959249344513,-14.518393130623412,-8.132634618483786,-0.08744542010141429,1.0311228596810567,-6.231440437370389,g
-13.35046792241063,-6.341549446644807,-12.71667618138994,-15.791564153750727,-8.772567646344417,0.18786634751135298,0.9712412494434431,-7.00260541605118,g
-15.146445639179367,-6.052504694896061,-12.713203025532868,-17.039270257997806,-9.119022055858498,0.5979040810718931,0.7800528665932349,-8.192219497921617,g
-15.71826446212153,-5.482106697133724,-12.05375495862491,-16.897710129947434,-8.745169209284835,0.8921347015523695,0.8108337014171022,-8.508291169249196,g
-15.892019778678996,-4.648440320548248,-11.027545182065591,-16.221412781079625,-8.042127489407164,1.338013149736979,1.006042317659302,-8.54321379929676,g
-15.892019778678996,-4.648440320548248,-11.027545182065591,-16.221412781079625,-8.042127489407164,1.338013149736979,1.0060423176593023,-8.543213799296758,g
-15.7254999822373,-3.6859134316701514,-9.8034331420042,-15.105120256521502,-7.1217316238598745,1.936190134664677,1.3405901476938746,-8.290270082831096,g
-15.444734616859474,-2.7832448100638514,-8.59427209721217,-13.720695438690862,-6.112892317559088,2.649788113946861,1.7396911917008135,-7.810562156339938,g
-15.309994156269,-2.085009865102152,-7.562305935072605,-12.245770456048763,-5.091944236887688,3.4561694577224022,2.1440421955641846,-7.184774920777071,g
-15.46030130531093,-1.610255277363655,-6.756758457220522,-10.798976999119475,-4.052872647013301,4.376928124315534,2.5622228523829316,-6.453181743425586,g
-15.870971961236885,-1.2836612654137833,-6.141815751432381,-9.430446890613526,-2.9536591406144455,5.452412001720876,3.062296118892671,-5.595702694842233,g
-16.433645894334088,-1.0551360017000524,-5.6800406979351035,-8.157797744912916,-1.7971324650466314,6.680117320103901,3.707413687706866,-4.566670247033114,g
-17.043017894890298,-0.9646154758883663,-5.3751017375979036,-6.996077141779435,-0.6610055860077393,7.973144721707564,4.490522817300027,-3.351707477948325,g
-17.6110119675798,-1.0780290179426015,-5.234573361511333,-5.955791947592928,0.3512709426266586,9.177427127177923,5.319382624184182,-2.002157704323642,g
-18.050949554529364,-1.3894306864082244,-5.215858639477941,-5.036151786565458,1.176858085694359,10.133954232464475,6.055252745508861,-0.6289522468471791,g
-18.2951272896227,-1.8110345972403277,-5.230690498789817,-4.243706733231477,1.8068698000938734,10.738071257962046,6.571208930653739,0.631904228334734,g
-18.32542042422055,-2.2414847778825915,-5.201415952218943,-3.6180537464821363,2.250334451947494,10.95974740148466,6.796920629687794,1.661144843030982,g
-18.162797157862762,-2.623010668934172,-5.104248220923348,-3.2219692173891246,2.503184567042724,10.825389910529976,6.735036769955068,2.3896303143670368,g
-17.823311545139877,-2.9525388325724853,-4.963218568666553,-3.093064710400894,2.5518728140009324,10.38692003510814,6.4460250909061285,2.811327866118379,g
-17.293478089563994,-3.266837282649982,-4.8141250775904885,-3.206119574636407,2.3953911314023424,9.70377179254966,6.00797575784478,2.967294291084684,g
-16.54781296881974,-3.6048885398499926,-4.674789877000179,-3.4927729186697483,2.0594839598725296,8.846913865863824,5.473708291024889,2.905612111335842,g
-15.591657204569017,-3.9529811550998533,-4.542864946153429,-3.9108379099840365,1.5917662738098024,7.913309625860267,4.855041237061566,2.642159534145848,g
-14.50423146378559,-4.227485261660533,-4.419754540095567,-4.504458849535494,1.0403040549093516,7.026988052644167,4.146541464127891,2.153469846817392,g
-13.446351074549124,-4.334563746580011,-4.33320405151443,-5.3932072752122355,0.4323855940853166,6.311374989313504,3.3691105324561432,1.4117519853963079,g
-12.59629013277408,-4.247399354744097,-4.324031869952588,-6.680500099481492,-0.22311377882105363,5.842983822350479,2.5955605446694747,0.4352675417336453,g
-12.04229472676632,-4.013453959393114,-4.402937091564562,-8.34697672183008,-0.9103951524933468,5.615261388122484,1.931268012616107,-0.6921177085722054,g
-11.738311942151604,-3.704264106465376,-4.532335550295509,-10.224562805699012,-1.5938691734818913,5.536406243699813,1.4559816832715822,-1.8556139387460255,g
-11.585774611684425,-3.387979349644347,-4.66726864071172,-12.083902571192272,-2.242624336823051,5.464492057411779,1.1662772992767754,-2.9717420016866627,g
-11.556043806208688,-3.1363388542818362,-4.810460135789969,-13.76025083134407,-2.8634830009255166,5.263523610055501,0.9654540230340839,-4.022120800640271,g
-11.711321990060602,-3.0073063492370276,-5.00916906786801,-15.205684982770885,-3.4934261702092635,4.852907118875264,0.7164441785879901,-5.026539541887871,g
-12.105107323298654,-2.9993533075015497,-5.2918274219588115,-16.433113753451398,-4.150590141055377,4.225809880890896,0.3249751536789094,-5.978813178305389,g
-12.683730316195355,-3.0468938589708126,-5.617415591805223,-17.423140444357568,-4.795767414674982,3.432389702148194,-0.2038103833006839,-6.803890260559514,g
-13.29435237656368,-3.078207769661047,-5.893822214739742,-18.086902630035404,-5.344199112145242,2.5487612122603096,-0.7715273563244283,-7.377035671607783,g
-13.781910965543716,-3.0667439770995495,-6.044454517815331,-18.309159609665855,-5.7127503644295725,1.658119130949205,-1.2459527687052765,-7.59110977670139,g
-14.084667035903625,-3.02473302916004,-6.059975842202468,-18.021508751301898,-5.8589245695279155,0.8511860828929375,-1.530101537451685,-7.414160227049412,g
-14.257641675455435,-2.9718495111675858,-5.9941882361519365,-17.244335930698377,-5.785856565482289,0.23020410344012862,-1.5987057145891073,-6.8892349875043495,g
-14.409399566806645,-2.9204891209660326,-5.9114827427506365,-16.07905890417343,-5.519914530346717,-0.10372718037734216,-1.4906772055784474,-6.086613304947002,g
-14.601032109049763,-2.8683392590001455,-5.83184453305766,-14.675695909917971,-5.08716548823188,-0.08412785155983768,-1.276874361607723,-5.066406720258409,g
-14.803090275434835,-2.7917954183952047,-5.726660330415143,-13.20616205586189,-4.513146989873351,0.28476030730935376,-1.0270967723276154,-3.891304298013222,g
-14.967551763599905,-2.6700849134573184,-5.576046214015045,-11.8465016140346,-3.845046360836817,0.9179248969256157,-0.7851759240365387,-2.6639038144784375,g
-15.14286029604454,-2.5348333451525704,-5.429106618745414,-10.748888237870565,-3.1635458391947764,1.6810029366318084,-0.5538805452210931,-1.5282905125906763,g
-15.485342897563536,-2.4731760195388874,-5.389699883277413,-9.995776330821839,-2.5524063901494634,2.4487015558349965,-0.2978376512020587,-0.6130185906340841,g
-16.12238460098091,-2.550190117783321,-5.523085140591571,-9.562381732950131,-2.0403614537968497,3.154234371209165,0.02990422863592368,0.04135730030170644,g
-16.996902196788703,-2.730440874999726,-5.770953368096373,-9.327983214033006,-1.5735885314394356,3.798809829466684,0.4515293859632875,0.5038257759154126,g
-17.853826749561595,-2.8936514097569352,-5.964767197526056,-9.145783206623253,-1.0592745748007508,4.415689402804684,0.9438441602857747,0.8967273317362044,g
-18.3849818217328,-2.9247100739076872,-5.934712492937415,-8.928765841279452,-0.45275492509052667,5.011458491842772,1.4453966009170442,1.2990738057210058,g
-18.406803326202937,-2.7819997446044313,-5.625596752383973,-8.688026742684654,0.18473118646175765,5.524736993019843,1.8821376220375263,1.682874122949513,g
-17.940065886873338,-2.5007462192790872,-5.130208294425971,-8.496183216899025,0.7077769894487833,5.838759371846582,2.1957453381581713,1.9345335620926427,g
-16.202394492025174,-1.8247116277318025,-4.206846580227678,-8.42049650242789,0.9402948337025141,5.556901263006592,2.3950686801445435,1.6961062056692593,g
-15.13963763870584,-1.5117995105535722,-3.88524112897581,-8.465610596937683,0.6840706740150455,5.073381948565729,2.3214521688242726,1.2619206456144143,g
-13.898202536120646,-1.1675842090035322,-3.5343474339150056,-8.5009070416093,0.35000960780168816,4.577241527132639,2.1611497765529615,0.7441385117049573,g
-13.89820253612065,-1.167584209003532,-3.5343474339150056,-8.5009070416093,0.3500096078016882,4.577241527132639,2.1611497765529615,0.7441385117049573,g
-12.447657990603776,-0.7479902021939875,-3.05576711996767,-8.55638074842774,0.03615824591736572,4.186965393934432,1.9143785465343863,0.19352759179014173,g
-10.92157153158659,-0.3010411274718452,-2.4842341034308983,-8.72976548414333,-0.2745383190217125,3.8830188000785215,1.574983384657747,-0.40456942856350997,g
-9.598100130984385,0.043570695655400817,-1.9881674357324681,-9.113511056840407,-0.6820550109134611,3.532537983750859,1.1485683084257108,-1.082244363193254,g
-8.746243679174624,0.17921174380223265,-1.7615182116845038,-9.717365610806143,-1.2662109281981613,3.005014611951334,0.6563337720779252,-1.8323753100531541,g
-8.482453692968267,0.10410845842414426,-1.9042274022417487,-10.455985800541274,-2.0068515811147956,2.2886010404998873,0.12487759755947776,-2.594428215563309,g
-8.745357152081604,-0.09864300244907968,-2.3789420045557965,-11.21158224152578,-2.7929000598202762,1.5100048932025447,-0.42465741719668,-3.2891925235110726,g
-9.370743976581283,-0.3368440198378551,-3.05316059609089,-11.91099520607332,-3.5016808850260146,0.8378371628224913,-0.9806216153778561,-3.8696811404901617,g
-10.184990196141246,-0.5567822846843786,-3.775703815764019,-12.54206337928922,-4.0733666984115535,0.35300409343756417,-1.5367341067078442,-4.343768591060703,g
-11.055978796935348,-0.7370506060277312,-4.428344082955855,-13.08903460426941,-4.516707772559576,0.005853653339930887,-2.076878695018972,-4.741959025890404,g
-11.885216345711397,-0.8484149089307065,-4.924987092327764,-13.445653533146091,-4.844753187241713,-0.299466493919862,-2.555072852428096,-5.049420246674684,g
-12.572153079518342,-0.8132574642103412,-5.184125481414709,-13.40175265193503,-5.007911352038651,-0.5809933485802888,-2.8965155410841077,-5.168256992157499,g
-13.017681592135727,-0.5199881693629624,-5.135407375623966,-12.752378394489641,-4.907079801192066,-0.7471233387960097,-3.0397073927867857,-4.968260450875588,g
-13.197746687998048,0.07409340665873121,-4.783693416029384,-11.467762009248222,-4.49631700182405,-0.6941056113361477,-2.9948315253740465,-4.404179037787067,g
-13.23120148685291,0.831906475858329,-4.263407446935141,-9.778988395408883,-3.8767501400565947,-0.43163322704646234,-2.858777990232235,-3.596244311121417,g
-13.326885067393516,1.4703581859505301,-3.7885762115221064,-8.075288051645243,-3.2649948022745456,-0.1016858457254537,-2.755805479370843,-2.7839006121712453,g
-13.619551928773301,1.7617571558386984,-3.5075861627761697,-6.667599850528231,-2.8397302654890764,0.1345583655356063,-2.7457308157961946,-2.173316322024244,g
-14.057636957939385,1.711403197709797,-3.399336057301313,-5.609250538846075,-2.61055322558056,0.22798171812471554,-2.782389061490306,-1.8022422391572857,g
-14.47490507804864,1.5124739242325977,-3.3310959600143,-4.731732176240695,-2.447814633171151,0.2544197384128267,-2.7669308334996066,-1.5390650702091455,g
-14.781037132709892,1.317855646305476,-3.2358722815817655,-3.8647181553512966,-2.253644782602222,0.29120190182616823,-2.655821922088724,-1.2209721268562383,g
-15.080092213466376,1.0604546469257783,-3.238716158069412,-3.0423755868760263,-2.1112332219785572,0.2792225559812379,-2.5303029367390506,-0.8183045138455192,g
-15.605735115780186,0.48436469169724355,-3.6064651635391725,-2.513959889297608,-2.2680839808203084,0.012312216930594233,-2.5626924611450965,-0.4881595234458165,g
-16.533704177785864,-0.6573797844312811,-4.556892366707516,-2.555134744001669,-2.960332841744905,-0.7242544113078662,-2.9024893858248264,-0.46984107980988615,g
-17.8237514262428,-2.4013644707448636,-6.081807366020269,-3.247239442913488,-4.222899514801037,-1.9858759013933693,-3.5752829680449003,-0.9052447222648572,g
-19.213340935438715,-4.513709097679702,-7.924928061542251,-4.408672609846226,-5.842559416450519,-3.6183436391650496,-4.476538630282157,-1.729808124047262,g
-20.378526328262314,-6.622470835866677,-9.734757240147577,-5.725864006697001,-7.494986544915191,-5.362310223312884,-5.458059967468272,-2.7188788797219434,g
-21.147949933712596,-8.454799036974329,-11.27473426915886,-6.965465253009546,-8.953601930854946,-7.010964083016025,-6.4239359758016645,-3.6431258383092833,g
-21.59533052507924,-9.98302155154173,-12.524277001024368,-8.093021046130378,-10.197089181704598,-8.484482100752787,-7.35267653629492,-4.403719636824517,g
-21.933331251148367,-11.349067955403875,-13.60106074887545,-9.219183822751518,-11.339173989107055,-9.781163639084191,-8.242711868455066,-5.053496890080192,g
-22.320701414352186,-12.65997486352012,-14.598801303939052,-10.449655132577067,-12.471159047306012,-10.887040668204467,-9.054796474961,-5.716406436050088,g
-22.766802743659248,-13.874576235034322,-15.498569351232385,-11.782091899711862,-13.57225328395638,-11.747069507940804,-9.7174629199151,-6.487599525111203,g
-23.18828232761019,-14.868437148520064,-16.21107578620755,-13.11929823487534,-14.54585098455938,-12.313252634906128,-10.185343746426927,-7.381425911135961,g
-17.700164659502683,-3.1181214373624258,-13.630983865231055,-15.82906462780395,-18.67690172342412,-14.661693059612938,-13.315148570286189,-12.46455410483695,b
-17.770081399356865,-3.290888134001597,-11.418928014759349,-15.917523514293787,-18.65665472034097,-14.5658870194017,-13.086596932807751,-12.07249893766207,b
-17.829543453530114,-3.4645652089631063,-11.438497091178437,-15.919773536146868,-18.57558401056455,-14.563896501575414,-13.045582505110067,-11.761474980462264,b
-17.878548958317545,-3.638790951777365,-11.464341171029789,-15.923315301559242,-18.563070136569742,-14.573070488271375,-11.586884404885328,-11.638103575814943,b
-17.917096050014287,-3.813203651974786,-11.504973796923467,-15.994370275658454,-18.699950580447034,-12.901491359340657,-10.20397566448478,-11.663107781902049,b
-17.94518286491546,-3.9874415990857814,-11.567073457153754,-16.152744988410763,-18.984913630593393,-11.370751583948918,-10.402736407843005,-11.693391877593665,b
-17.962807539316195,-4.1611430826407645,-9.380609031415622,-16.375253899596153,-19.363884556487456,-11.7225732082053,-10.48520224130273,-11.605592886358677,b
-17.96996820951161,-4.333946392170149,-7.328258495660147,-16.617459509971816,-19.7885263451034,-12.124687412669877,-10.50398571517486,-11.391543160727982,b
-17.966663011796832,-4.505489817204347,-5.305752996896997,-16.84380460696635,-20.251596269821057,-12.601548352753085,-10.574883754048843,-11.155859090917701,b
-17.95289008246699,-4.675411647273769,-3.209569984388557,-17.051504305853896,-20.773871859937223,-13.145799292654283,-10.772107719987584,-11.032464358730323,b
-17.9286475578172,-4.843350171908829,-3.3524202054267356,-17.27480943443792,-19.265513786363112,-11.863112257669792,-11.066403588249967,-11.092101038214581,b
-17.89393357414259,-5.00894368063994,-3.4988283060135394,-17.56753118949957,-17.641953732486634,-10.394829303099488,-11.355983562456554,-11.305998731858178,b
-17.84874626773829,-5.171830462997515,-3.648212445459982,-17.969894588918535,-15.869963516915613,-8.712036299786233,-9.943662554919444,-11.58106261108455,b
-17.79308377489941,-5.331648808511966,-3.799990783077078,-16.336438804012214,-13.966339408391013,-8.74296373123386,-9.961726128634393,-11.829486843909056,b
-17.72694423192109,-5.488037006713706,-3.953581478175841,-14.658259625342954,-12.003301829628036,-8.782520147921614,-9.988977846175851,-12.01801600692355,b
-17.650325775098445,-5.640633347133147,-4.108402690067288,-15.055839245631622,-10.07055778691797,-8.838141726546775,-8.57064285939664,-12.169933599327027,b
-17.5632265407266,-5.789076119300701,-4.263872578062428,-15.244068369451375,-8.220569647977094,-7.194852707385985,-7.429835358320952,-12.336066653845965,b
-17.465644665100683,-5.9330036127467825,-4.419409301472281,-15.242244811364065,-6.439716506693176,-5.6540976860968195,-6.507337604050429,-12.565299059248648,b
-17.357578284515817,-6.0720541170018025,-4.574431019607859,-15.178088231905846,-4.663510551715664,-4.119348348148435,-5.640901325497107,-12.88416011070604,b
-17.239025535267125,-6.205865921596174,-4.728355891780175,-15.183896018863496,-2.814933282775109,-2.5064004748589097,-4.66554429157881,-13.278176844902983,b
-17.10998455364973,-6.334077316060311,-4.880602077300244,-15.272918397921037,-2.9343759951040425,-2.6140832842270867,-3.4858522752325776,-13.681133646949627,b
-16.970453475958767,-6.456326589924624,-5.03058773547908,-15.30960543970875,-3.0550132481713446,-2.7211167414399133,-2.0839333599173337,-13.995512676635794,b
-16.820430438489346,-6.572252032719527,-5.177731025627699,-15.113680491621892,-3.1762689208109895,-2.8271154626357977,-2.1068753059417573,-14.150114008816065,b
-16.6599135775366,-6.6814919339754315,-5.321450107057114,-16.753994366956608,-3.297566891856954,-2.931694063953145,-2.108919517855578,-14.159410281701891,b
-16.488901029395652,-6.783684583222751,-5.461163139078338,-18.287459847326524,-3.4183310401432125,-3.0344671615303636,-2.0934374271751506,-14.131630600193423,b
-16.30739093036162,-6.878468269991897,-5.596288281002387,-17.7202489384859,-3.53798524450374,-3.135049371505859,-2.0638004654168296,-14.20521691276586,b
-16.115381416729633,-6.965481283813285,-5.726243692140277,-17.443042517278528,-3.655953383772514,-3.2330553100180404,-2.02338006409697,-14.451903854608464,b
-15.912870624794817,-7.044361914217324,-5.850447531803018,-17.456199040599895,-3.7716593367835087,-3.3280995932053132,-1.9755476547319268,-14.818595876625817,b
-15.6998566908523,-7.11474845073443,-5.968317959301626,-17.571639194923353,-3.8845269823706987,-3.4197968372060847,-1.9236746688380557,-15.155991072145948,b
-15.476337751197196,-7.176279182895014,-6.079273133947116,-17.556906344972088,-3.9939801993680613,-3.5077616581587625,-1.8711325379317105,-15.313785837830745,b
-15.242311942124639,-7.228592400229488,-6.182731215050501,-17.28569447360392,-4.099442866609571,-3.5916086722017533,-3.291185664671379,-15.227757618356696,b
-14.997777399929742,-7.271326392268264,-6.278110361922799,-16.784532854998737,-4.200338862929203,-3.670952495473464,-3.2469324207157193,-14.9350875839794,b
