Fz,C3,Cz,C4,Pz,Po7,Oz,Po8,Inst
-6.221145469175825,-6.424849529620585,-4.715529167767851,0.5309203422519164,-3.179792317120218,-6.604315016686705,-3.9036894108957414,-1.0662108065339961,g
-6.221145469175825,-6.424849529620585,-4.715529167767851,0.5309203422519164,-3.179792317120218,-6.604315016686705,-3.9036894108957414,-1.0662108065339961,g
-6.221145469175825,-6.424849529620585,-4.715529167767851,0.5309203422519164,-3.179792317120218,-6.604315016686705,-3.9036894108957414,-1.0662108065339961,g
-6.221145469175825,-6.424849529620585,-4.715529167767851,0.5309203422519159,-3.179792317120218,-6.604315016686705,-3.9036894108957414,-1.0662108065339961,g
-6.221145469175825,-6.424849529620585,-4.715529167767852,0.530920342251916,-3.179792317120218,-6.604315016686707,-3.9036894108957396,-1.0662108065339961,g
-6.221145469175825,-6.424849529620585,-4.715529167767852,0.5309203422519163,-3.179792317120218,-6.604315016686707,-3.9036894108957405,-1.0662108065339961,g
-5.78775309683103,-6.388763783699628,-4.614875495377242,1.0159846875182346,-3.362197797006311,-6.756650077386918,-3.9766845844156684,-0.9308357603405485,g
-5.904292971559421,-6.774273363619284,-4.883292272875711,0.8797603638320789,-4.00798364639463,-7.317441488624953,-4.5529778681663355,-1.3049173766457371,g
-6.355468095081813,-7.431361428235398,-5.362015230941405,0.27093833132984135,-4.945410351083196,-8.17833067771093,-5.484884477916717,-2.090541004269725,g
-6.817973334027779,-8.104670637034278,-5.784456685193768,-0.47730318269815564,-5.896105349720846,-9.087033338052615,-6.44208563405269,-3.020721321121719,g
-7.054743965994722,-8.561700494081927,-5.918778816619686,-1.0148382050924993,-6.614548106266492,-9.78479598406448,-7.097815937903098,-3.7707974312960006,g
-7.021698640240435,-8.697056784612402,-5.667228068384366,-1.1444750906296632,-6.9750028506231585,-10.113966093642048,-7.289215643159875,-4.103265622781092,g
-6.823568320338,-8.540201773812594,-5.072579442835542,-0.8847796392299593,-6.974713227653895,-10.058891380625969,-7.070573959079814,-3.970296332729256,g
-6.5843007489225105,-8.180811333289638,-4.256148760551218,-0.3933462321335741,-6.687186309065234,-9.72929641924722,-6.6505998669240425,-3.5133587214156377,g
-6.356048272614003,-7.705156269397189,-3.3493519836871384,0.17794015922516687,-6.21652927826337,-9.303318884048037,-6.263588598786908,-2.9557922341811933,g
-6.116843734413969,-7.18866321005908,-2.453013272314032,0.7834449527484496,-5.667669770122937,-8.943976907582456,-6.047164627847176,-2.4555747517362367,g
-5.810660520133178,-6.694247108457799,-1.6196303840276887,1.4761886184938289,-5.117593708283047,-8.718244022275531,-5.987950454682543,-2.0203033020382386,g
-5.385327689557389,-6.242453082877839,-0.855841724731113,2.3141402046564017,-4.591065794778317,-8.566366139416889,-5.958588372851954,-1.5460774960191455,g
-4.83391421683068,-5.805637510916713,-0.15486410617551388,3.26306049222962,-4.069834365071182,-8.352680162976139,-5.818961312859704,-0.9462339458803524,g
-4.2329697466255105,-5.364681277803699,0.4569348349581423,4.179122886602228,-3.5405046679441314,-7.974761198974647,-5.517719800888685,-0.26075968683676753,g
-3.727560952165587,-4.964123831072276,0.908473474104321,4.891924073591943,-3.036823251551048,-7.457117575501816,-5.130671987522321,0.3489879960924194,g
-3.445843285406549,-4.687865969715096,1.1331656849661864,5.322081086003857,-2.6290900608117953,-6.955180019451298,-4.810738370372794,0.7192535176282812,g
-3.4115882719918282,-4.584211548093549,1.1380292402193342,5.530454828205544,-2.368647723030036,-6.655913060900606,-4.680525861320314,0.8158932856981632,g
-3.535710228634786,-4.629002269324893,1.0221019164357013,5.650156400533399,-2.244248490975251,-6.6456380129201,-4.743381991767728,0.7610958557629475,g
-3.6876564696852343,-4.751593202992792,0.9166506571585311,5.754904637558465,-2.1960192537840157,-6.853512247586755,-4.8858540645725155,0.7225761016245219,g
-3.782469448437925,-4.880425392310761,0.8903299590137335,5.7769717615472205,-2.1760192450981632,-7.121854834832774,-4.976297646999795,0.75810502535599,g
-3.825830555661361,-4.977278503630213,0.8991617844089166,5.552581533698254,-2.1961664442816895,-7.339616139411719,-4.975008146247675,0.7608200028042582,g
-3.890885836356328,-5.050671781043818,0.8351042992939174,4.96869810180249,-2.309890064070331,-7.514412952317159,-4.951804432762581,0.5665106260246409,g
-4.033469280600681,-5.126749171708532,0.6455234990893916,4.092178450642914,-2.5378707823044566,-7.722231261596081,-4.995334714146569,0.12669450001938262,g
-4.208382092328056,-5.184505767607711,0.41533137200833964,3.1599970236170143,-2.816452638150769,-7.998764466382838,-5.110386641946602,-0.42431093385571234,g
-4.281740736200727,-5.133991825280224,0.31386996370457004,2.4173961531031845,-3.03940264179707,-8.28842323124206,-5.211249532138075,-0.8842047170977319,g
-4.156031509117711,-4.8976898167277465,0.4334217518086104,1.930342285087915,-3.1671230937437906,-8.496439890036037,-5.21575593897727,-1.174789907190875,g
-3.888501508198621,-4.520057639429262,0.6703715126049945,1.538690218387782,-3.2907758162686975,-8.58135844187343,-5.13961373157651,-1.4240075982185656,g
-3.6688959531303267,-4.165963973135575,0.776988170065781,1.0019710785289497,-3.569660866922039,-8.591739451826578,-5.091987832503747,-1.8501806962494225,g
-3.6733319204259174,-3.9934070636812335,0.5498016071323516,0.2170140557677132,-4.087054243511345,-8.613121710582588,-5.171250594338117,-2.545430272176518,g
-3.942324063789856,-4.03578224671973,-0.011220041800557112,-0.6812852953341914,-4.757270709950993,-8.679453103753946,-5.356528564746358,-3.3526515129326255,g
-4.385008556199426,-4.202919080845328,-0.7077938778261487,-1.422069892135923,-5.3733123616177085,-8.737243780770239,-5.5020843802510715,-3.955201675307353,g
-4.871629951861158,-4.37071118105262,-1.2996575829930404,-1.811931120802314,-5.758439359891139,-8.70274097656498,-5.457446162679458,-4.116067662669515,g
-5.315990623977102,-4.468736147080787,-1.6777599655952007,-1.8755481422082514,-5.8960209997877575,-8.561836443887831,-5.219426744749822,-3.869012038843065,g
-5.692633095747124,-4.515472156327223,-1.915875673389953,-1.8083372169490766,-5.930116392473628,-8.411258266273398,-4.972865936210617,-3.4975346854688754,g
-5.991533983569293,-4.585208154817105,-2.1640193315362497,-1.7903873367536445,-6.034022318895295,-8.386983814698901,-4.958533940778833,-3.3173587998274456,g
-6.153304285508974,-4.714298658509707,-2.4791601378421797,-1.8289158116460258,-6.2558096519601225,-8.538054259507785,-5.266325570709588,-3.447771121685426,g
-6.056414235217449,-4.819302208576255,-2.7479156436286702,-1.7673454709428522,-6.47664091648452,-8.768306556408449,-5.738549059298483,-3.760459732439915,g
-5.596429297467014,-4.728545693279043,-2.7740221446840567,-1.4457172967966012,-6.520796753689524,-8.909196796376685,-6.080160977182296,-4.029411137103452,g
-4.790035092039834,-4.3191108948300805,-2.441305863726445,-0.8558809166056918,-6.312273653438799,-8.859042133910576,-6.084525331284294,-4.130817595287798,g
-3.779035561537488,-3.6144496381725615,-1.79006346425391,-0.14312468761215147,-5.927948477234262,-8.659759418607827,-5.779535184071892,-4.118509599941551,g
-2.713014708564257,-2.739015619374204,-0.9481592411975374,0.5380765745619747,-5.507174777060856,-8.444554089709854,-5.377246686596882,-4.133234537409196,g
-0.5324677133785567,-0.8604400532448823,0.9747905849173868,1.814133155230417,-4.743593005586659,-8.231935481866866,-4.941250404417453,-4.425026677417767,g
0.6089779439452501,0.06198115864584928,2.001082937910232,2.5733113480784224,-4.299542127922669,-8.087248730061301,-4.807765571332174,-4.520806081874416,g
1.680864221573866,0.9205971463400328,2.998336658819894,3.3810563941906566,-3.776406022230622,-7.769593337765561,-4.500710773273683,-4.4504076875332865,g
1.6808642215738658,0.9205971463400328,2.998336658819894,3.381056394190657,-3.776406022230622,-7.769593337765562,-4.500710773273684,-4.4504076875332865,g
2.5243898036052217,1.6646007577110473,3.8605672546711096,4.074395515489536,-3.2412010675511853,-7.284330988910516,-3.94921244422991,-4.2212549289746795,g
3.023380186350184,2.2472697346626687,4.494109981698675,4.521839404546034,-2.793459663670134,-6.750883809785712,-3.248507599064902,-3.903388275898299,g
3.1764185947986547,2.63092236728121,4.86599740806602,4.740319390192686,-2.4916221832144574,-6.311134187349255,-2.5805111485531333,-3.5543206487259993,g
3.0980881971615224,2.804886258803667,5.006053461531769,4.877207361413744,-2.319850411361374,-6.0241716287567515,-2.084394360395262,-3.1908327536490178,g
2.946296960828091,2.8012662902344214,4.960136011548359,5.067612274619944,-2.223008181631219,-5.831570990119735,-1.7855621028127922,-2.831728774552059,g
2.8204035978496544,2.6726969804799983,4.737728006826885,5.296093378685021,-2.173441476578715,-5.609950723924633,-1.6192409649119361,-2.546915645803349,g
2.714292344343321,2.457631643874464,4.3139534503551165,5.3964223154839575,-2.196575726394412,-5.2566348873700335,-1.5000705846985662,-2.4358240012566794,g
2.5682146205170144,2.1918540228381436,3.6948675314301838,5.1982668406283326,-2.323512185957518,-4.742267067308554,-1.3721544768348675,-2.5391853064417544,g
2.3559926306518966,1.9454896686658318,2.9741775159237758,4.6882809004305575,-2.5242586816582886,-4.10676749652892,-1.2178134289679015,-2.770392080472033,g
2.1092074116162913,1.8037590210614383,2.3058508486014944,4.039036272020981,-2.7010600665422766,-3.419393745917103,-1.043749472351113,-2.942248387604017,g
1.8765979222715068,1.795156550000734,1.815080970738535,3.489516760496252,-2.748803530902767,-2.7348256447940917,-0.8652184423143335,-2.8747363231860765,g
1.7035208334682497,1.8741874445674829,1.5479364274830634,3.1958842298730814,-2.61162857238937,-2.06619265081173,-0.6926580647628843,-2.4967514993976523,g
1.6615253703004385,2.0010851699121677,1.5092867340232154,3.1747703003214847,-2.281621119623749,-1.385997306517782,-0.5209123934590815,-1.867268282399353,g
1.855389722884293,2.214513921167519,1.7255253927409029,3.354462640974744,-1.7640924282758643,-0.6570183577206673,-0.3275385469027641,-1.1141732092240535,g
2.3527943816630534,2.5947948414117428,2.242072177673747,3.660461359434418,-1.0661033899259829,0.12171629292291875,-0.08587865794095836,-0.34944020289084704,g
3.0937397465602023,3.1595848767066266,3.04994690508895,4.062098692595118,-0.22286796058570618,0.8844173398000239,0.21278119184055497,0.3763688226991014,g
3.8777448812737108,3.8052947139489413,4.0186550260940255,4.559827313510358,0.671674288845882,1.5099073109677135,0.5439522750279498,1.0593890404141024,g
4.454739521839995,4.337437692234103,4.9116178588001675,5.140611255805874,1.469569861834716,1.8765057704986188,0.856404558320806,1.695671226917307,g
4.6659356380588095,4.561158135454111,5.49641731670955,5.749129785008754,2.0236946334121093,1.9319923341447098,1.09983715052001,2.2490964397432176,g
4.553418748459934,4.39469423245268,5.687361835466272,6.306919995534492,2.270784335424636,1.7329637945170364,1.2530189682279662,2.6596571716090542,g
4.358134111751419,3.9470238980144337,5.613519049625625,6.764508442514321,2.284131787343528,1.4207135216765379,1.3283970400966518,2.8829283120118263,g
4.371862460016164,3.475019244841301,5.538805942602731,7.135113758856373,2.2398441653012577,1.1459041034244586,1.3534229839915475,2.9342665469886553,g
4.727328460203051,3.2159993351444833,5.678183258178356,7.477066712951749,2.307150708857896,0.9978551784249688,1.3547945550519818,2.912675121174968,g
5.3017362399001975,3.235465674740523,6.0565219735382,7.845826486522133,2.5478387152649224,0.9896283959131402,1.3634966093191243,2.9832758979098437,g
5.829309661268009,3.43299243052262,6.525377224261328,8.26115894982029,2.9049449247628933,1.0975893531246572,1.424212372238091,3.308887557804856,g
6.120538741253532,3.676788056837064,6.909566898535106,8.709809173682642,3.2775720319188637,1.30838120307863,1.580620193080194,3.955799780210318,g
6.193473876580544,3.9148981381985903,7.150255523711495,9.16983288775902,3.609110349566649,1.6303985754612385,1.8387429896803162,4.836031180734965,g
6.228893604571508,4.182582009865014,7.337186205248814,9.633598009659988,3.9218534257824955,2.066657125510532,2.1452271713603883,5.739612754568922,g
6.417397911595207,4.548929765660192,7.623873404218934,10.112934128520212,4.28290423944177,2.578915020803336,2.4103989971063453,6.445873758926955,g
6.815360466121698,5.055344697480526,8.096017922574633,10.617741003787089,4.730080909761723,3.0752533298600673,2.5620834653066065,6.836034277111,g
7.287354513214167,5.655088167165675,8.681535082198403,11.11549418066235,5.206157546055341,3.430205727050852,2.5818372796718387,6.922389983983862,g
7.564453064977611,6.182468454395147,9.162520264697399,11.502722045431096,5.5479020222226145,3.520358966884975,2.4871511320200548,6.772724573402935,g
7.3909986943825885,6.403952376732356,9.285839214783367,11.62448581553125,5.546801265082027,3.252968906500373,2.274131908349528,6.397010327954934,g
6.666045024719226,6.136617188141399,8.900950133895947,11.346710151557504,5.049989329487422,2.5831318779158585,1.8794112392599878,5.705850926776928,g
5.48467625427944,5.342758187678086,8.038683897114343,10.641381472732794,4.041388888947312,1.5304862176443244,1.211560019918331,4.597309975565788,g
4.076427231947128,4.144299963517506,6.897232135328811,9.626599162522895,2.6596426766007446,0.1959649761989045,0.24025913451130024,3.1089123925541897,g
2.713529197531792,2.782121170873215,5.760776291528138,8.527835371470388,1.1483738091077385,-1.2436351360515674,-0.930631064293854,1.4919577166658593,g
1.6321037929315303,1.5437324266017352,4.889749829421139,7.575242889852229,-0.2385308752783062,-2.5846498990687614,-2.0804517920681063,0.11579696168861195,g
0.9555687037276519,0.6473326073538281,4.415266292411234,6.894419960780786,-1.3386650349632885,-3.67554259123643,-2.9838427532297533,-0.7430191872007282,g
0.6391311031141415,0.12482756011367915,4.283594819821642,6.45952281762375,-2.137930358182511,-4.47557291852722,-3.5382916636492325,-1.0634521071765493,g
0.5049166539458938,-0.17871475730597924,4.29938133832363,6.143750931373816,-2.7391210415624636,-5.045203645722551,-3.805483841807059,-1.0634448576041877,g
0.3821714040874876,-0.44735785297219116,4.259361722677991,5.834638947844732,-3.253839675112573,-5.467970596583526,-3.929690013892718,-1.0166957508151635,g
0.25018313815225135,-0.8207749016412486,3.8713214207456152,5.319792001049257,-3.9637414376604014,-5.844573453272204,-3.974742144542476,-1.0687348085712183,g
0.5830306791898,-0.5679458244610922,3.7724851801404164,5.311841333523608,-3.92713129994661,-5.614918837304509,-3.742405436567579,-0.900291382867789,g
1.333331310674906,0.1299248089493191,3.8868148229441237,5.49352835285813,-3.5542168973516532,-5.051545868454816,-3.2595639389629305,-0.47721080375143465,g
1.333331310674906,0.12992480894931902,3.8868148229441246,5.493528352858131,-3.5542168973516532,-5.051545868454816,-3.2595639389629314,-0.47721080375143465,g
2.3806397770658037,1.153562995558679,4.151554539188832,5.722145389142751,-2.9742106167964613,-4.282096028208676,-2.6419562643776238,0.051269199792312634,g
3.4335141744692677,2.2239468714665462,4.368824973348448,5.812563196907029,-2.424471140119561,-3.527883883784198,-2.113445526435256,0.41459086683475965,g
4.191949169672894,3.0480285883366927,4.329031357160657,5.663913103681791,-2.117340516224126,-2.9708327371553223,-1.8570496115924597,0.42492554634651364,g
4.533753798975893,3.4823425769693883,3.942177490358156,5.310518783431158,-2.1296403948531295,-2.6523247703429247,-1.9027831830386919,0.10564686493186386,g
4.573023663275132,3.5880182522047726,3.2746267243893796,4.8547964458286295,-2.4000994037958985,-2.4866890763004044,-2.1472505428169164,-0.3651327201747629,g
4.536362050705107,3.525122038130822,2.472342232090274,4.35310435617855,-2.823665332375536,-2.367182999630448,-2.4722532492583746,-0.8279971733877319,g
4.577925653143685,3.399514667929578,1.6564143222307912,3.771699571948104,-3.3442807651340543,-2.263815896880295,-2.8428704922217203,-1.2640776325447909,g
4.7045405922158405,3.224894293873164,0.8883430864225721,3.058276549375224,-3.959974046681109,-2.230194868152851,-3.296649884283698,-1.761621384860558,g
4.846041160122286,3.009092675920548,0.20936146451560417,2.25222701963312,-4.653527594189404,-2.326025222826539,-3.8464079477004605,-2.376629197977821,g
4.961158083061777,2.8227085220976624,-0.3228152140426806,1.509279835706152,-5.338353768740039,-2.5384850798785847,-4.404164313004687,-3.030133339440495,g
5.078096983692054,2.763259905618932,-0.6506629123419791,0.9999624987164882,-5.881577750209366,-2.781148053162746,-4.813342535650691,-3.539771061081045,g
5.269386548122429,2.88349682661897,-0.7551629727020206,0.7756386022504526,-6.176383025616276,-2.9682126404663354,-4.966519884407343,-3.750207720965526,g
5.606360904577531,3.1783593797610825,-0.6582587311336928,0.7379244775124847,-6.18922793956877,-3.083458364995818,-4.893576339136331,-3.634180363894145,g
6.118365805245393,3.6229559129780498,-0.38470858752921966,0.746544464995764,-5.945329201180014,-3.1695859504939032,-4.72913357694177,-3.2729558201716964,g
6.771552673920664,4.201849904748867,0.0693517947412492,0.7602711841196479,-5.481402920073192,-3.250336610069384,-4.5890302599137405,-2.7512773769505072,g
7.4833226493205895,4.910109634432073,0.7205939256733087,0.8708118495748458,-4.8195001014138485,-3.2724252303363612,-4.477177708224931,-2.0846996496694827,g
8.159111738911772,5.732605742214162,1.5410130462364597,1.1929538011260434,-3.988413779284406,-3.1363602470982443,-4.311884505905277,-1.2541465706068682,g
8.71456013469461,6.602828796479095,2.4076737264552426,1.7133288005393665,-3.0691437224984903,-2.7933042990248054,-4.041666161747925,-0.3059555748278379,g
9.083274445938278,7.378826013044109,3.1222990473800256,2.2470261269832523,-2.20568695536236,-2.3120940292773664,-3.73306749553454,0.5948319813630397,g
9.250726902973645,7.907035871241452,3.5225436912400654,2.562351298641701,-1.5395419596626538,-1.8384722385321628,-3.5355328409205447,1.2309657311640152,g
9.309429328074625,8.160935993649861,3.6168322875420467,2.5798773212743042,-1.1016084624008784,-1.465483486508536,-3.5390195802148448,1.4815700754500005,g
9.457832737529555,8.313935682531213,3.618500600789278,2.4694228532395472,-0.76069598200171,-1.1246439207758288,-3.644156300035835,1.4303794736794218,g
9.900857315459719,8.640514370809289,3.821941997062802,2.546793130435872,-0.2959407755590434,-0.6044876163887217,-3.569645996252624,1.3312191675280722,g
10.729409772971344,9.327662039330011,4.408747398439315,3.048640468524945,0.4531791257745656,0.3002173273682495,-3.0152310121023294,1.4436480978690762,g
11.890312926686153,10.369695354126629,5.339390018296755,3.9691572713661563,1.4789969812415253,1.618775973072654,-1.8685522618884,1.8621677911069376,g
13.258240219125469,11.604789897869628,6.404022639445563,5.07979538815038,2.6171016714079895,3.1453549543408648,-0.302714805203052,2.4682342726261566,g
14.729916603916942,12.81641038040802,7.372905473619021,6.0978363614099935,3.653592529163131,4.534077034580543,1.3078946546735395,3.0338931550064685,g
16.276979704453826,13.825388960513862,8.12997193807647,6.866259896630726,4.444215955352377,5.477199280509948,2.592410169558634,3.3903717025421534,g
17.946666968595263,14.552148427687921,8.708556983007927,7.420849531767137,4.968490682375003,5.84451105750329,3.3661272817079295,3.5352309659750425,g
19.814022702150712,15.025604759892778,9.22110885991905,7.9138850995478665,5.290823379950011,5.703646630173649,3.673973416237769,3.60640283169043,g
19.243341562905677,15.321627860474146,9.743412525485429,8.465424096270954,5.4660529873931845,5.230637852948897,3.6838350896879946,3.7513461833946726,g
18.472966135159105,15.486766236328563,10.245559845648392,9.059483911561905,5.472189159705077,4.588236216060756,3.523813179102709,3.9934385568750974,g
17.360958566928993,15.531527932920591,10.622658388898188,9.56037509939613,5.2313268636316295,3.854906554703723,3.188020841447639,4.197198501093737,g
15.857099449380632,15.485266696453868,10.79062422867708,9.824845114485907,4.698928596959595,3.039060626164045,2.5757615179414626,4.160655277788687,g
14.024058955287984,15.423676115679484,10.76175345388125,9.812597871113287,3.9407369474554685,2.1517211238683744,1.6253287907740845,3.7676864438268707,g
11.99264252411164,15.436546907451003,10.64687212456476,9.609798386151994,3.1331888125335605,1.2745145812590963,0.43074235224730223,3.084185851949986,g
9.889576650327417,13.631846291776862,10.595465680636673,9.356449835524055,2.488318056621842,0.567125605578625,-0.7570838386427571,2.3217621807740754,g
7.777861909867613,11.996808564928292,10.718217487156242,9.142493188078657,2.1556689254628916,0.20476739640949537,-1.6501164403740831,1.69845692934706,g
5.628161717436374,10.63595673373781,11.036685514665418,8.957898586370625,2.16579558751439,0.2911431039024325,-2.072161735664346,1.3111237480461537,g
3.332226553437991,11.470442090535686,11.491713707405902,8.736884569690982,2.453412982814565,0.8111064206379435,-2.029371202045705,1.1185661715284045,g
3.419876618675058,10.562523185066109,12.006442206137052,8.4555179947838,2.9399261559440752,1.6517883304185705,-1.6677567668441877,1.031632228540581,g
3.4943486465604443,9.681701325037288,12.549980280240057,8.190044879656918,3.601489949799896,2.665528993194637,-1.1685637172416297,1.0166736172138608,g
3.6049979983479346,7.429050619980039,13.796323580317386,8.193180819028711,5.503283405773687,4.736505321763046,-0.17869764636384142,1.4213126832747562,g
3.641795026285917,5.884984114636998,14.47830520039145,8.502368356118891,6.637218522466784,5.6319685704808125,0.2830126925092852,1.9245563346138748,g
3.666653424943978,4.077432305866005,15.104810487417987,8.860987386800158,7.690939733365825,6.343515460380609,0.735787944360146,2.552489266062449,g
3.666653424943978,4.077432305866005,15.104810487417987,8.860987386800158,7.690939733365825,6.34351546038061,0.735787944360146,2.552489266062449,g
3.6798830463400543,4.074932430258188,15.592887756387734,9.135087274861027,8.50236733795671,6.812535451341724,1.1475447488750776,3.1784728558705195,g
3.6817937424920872,4.061702381182593,15.904140073961381,9.29055351515044,9.00136599030517,7.025875628871856,1.464053009731538,3.7111562265816493,g
3.672695365418016,5.787130996019038,16.063066644236784,9.397435638304628,9.24340999721262,7.052298156957397,1.6686179413905833,4.143771386649423,g
3.652897767135779,5.459208090861086,16.13755574521236,9.545631456670685,9.36598803803295,7.025843745069428,1.819390172651256,4.528631260203164,g
3.6227107996633165,7.053365560696172,16.181646023375805,9.741523980644038,9.482933700745306,7.0610296195880995,2.0138583491466084,4.898854916351991,g
3.5824443150185687,8.722619831412938,16.176362500433488,9.872850641532409,9.584895854391982,7.160675106405864,2.301738201514408,5.205026901415472,g
3.5324081652194734,10.432765240327928,16.030139209372074,9.777474399707918,9.531490492182277,7.205961930817388,2.6242721393531965,5.321716945450683,g
3.4729122022839705,12.077108758858067,15.654216115669618,9.362350369880712,9.154124056431316,7.051739962874348,2.8388473895067134,5.120153538434013,g
3.4042662782299997,13.562580305128563,15.045115836953546,8.67029324913723,8.386593071785207,6.6506504777585205,2.8148170517252433,4.55241869876109,g
3.3267802450754993,14.862137129185786,14.294663657076223,7.840770848011365,7.31554794307205,6.101220821287042,2.5293359132626296,3.690390253667771,g
3.2407639548384104,15.998655762476526,13.526948698753788,7.011670201078809,6.1218965339252405,5.581439559832765,2.091823900104531,2.7004492594089498,g
5.536856995159204,17.008412910692087,12.827055227750828,6.252698630545938,4.97317760577325,5.221568352096589,1.6753974032442218,1.7739354444715798,g
7.72008580214307,16.183638197253504,12.209904670538718,5.568781272105424,3.9436693156855,5.01288019308863,1.4016645726380328,1.0505833167556793,g
9.861731241044868,15.443821621888016,11.632049671095476,4.939385083320978,3.0028720286041977,4.820126851027678,1.2657994972827822,0.5718058636706991,g
12.017089324099082,14.706050758610749,11.036462295787071,4.3484308586924465,2.0747138589985865,4.489618821050908,1.1615215685874618,0.2888039863300514,g
14.213526069868085,13.956365522818212,10.416535239302233,3.796451636753975,1.1341517496671791,3.9733319461050023,0.9836004099951141,0.12374588375092528,g
16.47713964256621,13.303555925411501,9.859149735955231,3.3083379103734947,0.27383869161892305,3.375976712524429,0.7217597292521785,0.0463915726555324,g
18.857761118700846,12.937744048010373,9.519659458559529,2.9380977812594113,-0.31906421509386795,2.8907180381729747,0.4735923568363599,0.10954746326342499,g
18.835798984915936,13.00443854683179,9.535028543776967,2.7593820446106507,-0.4662341748152051,2.6745659532533286,0.37586201977571404,0.41001431539330147,g
18.83454485734293,13.51421759840963,9.944597042647079,2.8386095268232396,-0.09980361495571152,2.758652288572479,0.5149644491020661,1.0005630876879212,g
18.852862307201953,12.386500198869843,10.682885707978592,3.2043751213910108,0.7168313706123114,3.059562569984643,0.88414247087278,1.8272803484106077,g
16.498973808224996,11.407130910939852,11.642681070423682,3.8348377607320345,1.854866151497799,3.4779744955657512,1.4122155644804688,2.753822167928454,g
14.266403623813744,10.535046837977118,12.751702353737416,4.675872997349813,3.2095988014882506,3.998388044490543,2.0309298061629524,3.6574978503127413,g
12.082110226354619,9.719118870928328,14.001554957278714,5.676589315049508,4.740155703863271,4.699248683997611,2.71951638844892,4.50953773589162,g
9.88872557938881,8.90002237335641,15.402471845842726,6.804762344202842,6.430280000009651,5.660332115162733,3.4910684708916144,5.3620931696139085,g
7.656500278264039,8.012343656436366,16.894936234778687,8.018373890465394,8.207392324315178,6.8508564040769215,4.342704398065246,6.256138152157066,g
5.3566414108104485,6.9766378274942,18.301055950320368,9.222539204133446,9.901738171610036,8.104550759426424,5.223887622304831,7.145628775399446,g
2.9363117906995577,5.706085172181327,19.385487629101085,10.273547067325337,11.303838161482238,9.21098493262737,6.055044605602285,7.918063789262128,g
5.21242479794733,6.039165085165253,19.996703196655893,11.048824447917886,12.286329988339505,10.048361416507081,6.778382840540528,8.493558087511392,g
7.279110131117922,5.974190816998626,20.16398104766396,11.521638511624953,12.878532232889828,10.646971233036528,7.392711488981706,8.901577248712922,g
9.180950889898106,7.656020200963747,20.052295315696778,11.760512381614115,13.213040241696728,11.13149443841965,7.93679085025331,9.249189207605244,g
10.956737110366053,9.291266768482355,19.81262635533755,11.846068659970335,13.386192107121952,11.5899289372156,8.428954922772444,9.596911113728144,g
12.609545844708538,10.83167072203174,19.463700502001874,11.782264785601338,13.361422140477748,11.977425254794772,8.813006260430656,9.855611627450244,g
14.128336427557471,12.209422454300029,18.904571118552035,11.485983276594744,13.005841428376204,12.138741437312174,8.967165225612927,9.816134617506162,g
15.523589731637392,13.40389726980051,18.038630568155988,10.868222654238357,12.230020116783198,11.938682525706728,8.787586777937495,9.310658136878235,g
16.840309949058014,14.460392870799996,16.900985406547296,9.938958779690811,11.112103338214858,11.396068363646608,8.287731700962766,8.375144446431332,g
18.14403286248703,15.4686674480959,15.678767013186652,8.84083306201269,9.89690228215797,10.70438984777102,7.624339311091146,7.26248196332579,g
19.48574787211648,16.521988365060285,14.59340642988894,7.7698710668322235,8.856344344417842,10.112589374771664,7.012567969706019,6.280998682956338,g
18.55646726609968,15.767900295177256,13.73201095169424,6.842731181177193,8.113693952530356,9.759765470458394,6.590040197069998,5.591955957568734,g
17.75002529662465,15.168377678641608,12.979048988637661,6.030364122088675,7.578125352210067,9.598679207857685,6.339864272820996,5.1366822213529515,g
16.904931433654397,14.512306933854543,12.124223232776831,5.22320203858178,7.051604161939733,9.465138084037308,6.1342256909608555,4.742883419542251,g
15.925417765106193,13.679492391767363,11.055709673711561,4.3646430993394745,6.416617120812726,9.226853258135481,5.858598242571917,4.30233161234306,g
13.842770765146332,11.912364083891495,8.771184234614338,2.846681688437643,5.223198547714537,8.58145371354058,5.23070850217402,3.5921764383106973,g
12.981166199883607,11.354922121050716,7.979433376571393,2.449184156675406,5.045619759065703,8.462635463909717,5.167900615162358,3.6157076095499554,g
12.301972712668505,11.134865721153878,7.556737049928325,2.350467590089962,5.269201617997124,8.613616552333655,5.417314146746362,3.9513661999324947,g
12.301972712668505,11.13486572115388,7.556737049928325,2.350467590089962,5.269201617997124,8.613616552333655,5.417314146746362,3.951366199932494,g
11.773659846087915,11.207208975849394,7.443259543361532,2.4915042146864463,5.829076098010386,9.00697786561993,5.944971465290008,4.504769915315865,g
11.358608327782582,11.473672347986467,7.5318551329938,2.7988908258617187,6.607019312823534,9.55031548129143,6.631900621022602,5.158566212439027,g
11.056732240416236,11.846885675078394,7.752847144609644,3.2328713710117456,7.510921469378912,10.157781239478572,7.364252042114236,5.847735556029549,g
10.913340184128236,12.298420717004301,8.100132898625947,3.7842262574627044,8.503609309178202,10.787952946649483,8.096273240553732,6.561663842355173,g
10.971843795739975,12.841215401974514,8.58278759659885,4.430660492078028,9.567700933532098,11.426116484992285,8.840336106144937,7.289915279798224,g
11.206477538004702,13.449017925986443,9.15539222143122,5.102310936390326,10.65258394748858,12.046600735817618,9.610928150041985,7.983498441276699,g
11.519501043206732,14.01467410603011,9.711006327647292,5.703794377191576,11.672561435980551,12.609289787741847,10.388049167055126,8.579240022709886,g
11.825598879045351,14.421975111265107,10.155411914145517,6.181220396190688,12.567760060724169,13.09854533419161,11.130875555332619,9.059367899173834,g
12.126870718385913,14.64949974995198,10.481039513903514,6.562529556907137,13.355625457736815,13.55230591932488,11.810909397290144,9.476002430788224,g
12.48142531895433,14.76965261084375,10.754604449763367,6.919503044616929,14.101884860017568,14.031034101473995,12.418974736385355,9.907701026329057,g
12.904637910221746,14.848457009836096,11.03618050530389,7.287892835338846,14.835520189037021,14.545601187190348,12.941688174147847,10.38819094020156,g
13.324739655056991,14.880738915761636,11.323799176127313,7.631390610380507,15.502259051103113,15.019852512618536,13.342803725549459,10.87585311939314,g
13.637692532419127,14.830808066144375,11.57740458484388,7.8865135464523135,16.01039537072659,15.340372354529999,13.579261173552425,11.292365802165957,g
13.796148829613491,14.713581356428467,11.788815251936906,8.042941966690076,16.32934665714013,15.465090735898958,13.644756400329452,11.59681144492156,g
13.858341045482025,14.63344273031625,12.031167772266034,8.185978066727648,16.555892133605504,15.49992480428052,13.602756652214662,11.832565681988394,g
13.972353893711002,14.760352069934651,12.443774644707165,8.462937967540984,16.886585497167435,15.662822368507719,13.569781494093059,12.105046339925263,g
14.296879606645666,15.245456981997378,13.145760481252717,8.989439223656694,17.494692753088064,14.405363742850597,13.644423908135128,12.50071493253321,g
14.887839530981944,16.096460749239764,14.12221324902858,9.754754624501054,16.412079145395403,13.307524087305358,13.82916761848124,13.00533930123325,g
15.634142321387525,17.104969189631785,15.174266787058889,10.598349769387784,15.331415205419773,12.242646600257979,14.013091223804434,13.48578318426327,g
16.31789012269861,17.932049172179507,16.000850299959207,11.289451801708054,14.080383567154453,11.05123532914737,14.04047595834525,13.75566888527184,g
16.75882609316336,18.313552230412206,16.36783854159969,11.661307297035094,14.184321218222436,11.086463147621549,13.814699429657619,13.68308004557153,g
16.90890196255105,18.198455597085662,16.22908609618937,11.700288776040791,13.72208223681857,10.591126547778568,13.352035265721005,13.264785274801474,g
16.82040120873713,17.69684640951102,15.702876824771565,11.522320302677889,12.876344631184935,9.731980918057124,12.741108345731316,12.611042801784846,g
16.54358737465241,16.91691527267907,14.935554045530063,11.257871877214289,11.849473740941349,8.678768449698907,12.04286087892576,11.847681086005695,g
16.054189615654973,15.855231176286106,13.96923576045503,10.934718480030748,10.688979442642665,7.4497246744885,11.216348433998716,11.00890719621866,g
15.255693400591957,14.412315371366267,12.714254464801169,10.448007636986647,9.263319823128292,5.906295459291379,10.139060723113719,10.01296838154401,g
14.049452733977137,12.500690532992678,11.049370454962112,9.647246691014471,7.410696351470411,5.6403972731428516,8.7174779815228,8.754217040668873,g
12.439743742678555,10.17798369152161,8.98245603170083,8.484933025832314,7.11699441862027,5.116487871570699,7.006354799825688,7.2443774221426604,g
10.59940519464493,7.7118074284282425,6.7412507584001675,7.11233374203299,6.74939117037257,4.532281770251462,5.235903892075102,5.67949542473642,g
8.811968354105634,5.4838548421161,4.692315374049225,5.82978202688285,6.565712584987738,4.12966863691435,3.7081581407668436,4.357390000886221,g
7.3065995008122915,3.7641881349912154,3.127062773539502,4.909567600746803,5.099451847204095,2.598205821557616,2.6255861998034105,3.4927070082515073,g
6.130222547249447,2.5503458330747706,2.090541142134732,4.4247029695233895,4.263500308015746,1.6562581332169934,1.9770103409179618,3.0719178893582795,g
5.179356744737294,1.6362986454941133,1.4033760341105004,4.222056782893544,3.810023744418981,1.031158011564287,1.5727907896647046,2.8730901858294096,g
4.346372455860964,0.8392555962097414,0.8487085367862903,4.058094008359691,3.463673119456471,0.4491590931543531,1.2093140658236734,2.648209592549459,g
3.627351506018845,0.1536967839655467,0.3507314910361098,3.7816427440061995,3.1329117889346234,-0.14280078333669094,0.8355131286928608,2.3262198074598874,g
3.1060919970676344,-0.29313241935103423,-0.0011002732747372956,3.4199284888892203,2.9297664442321887,-0.5607440757731298,0.5832730733264601,2.0637676622532597,g
2.8558950288837814,-0.40437347974233867,-0.08143610349044787,3.1124438469771456,3.003437000559864,-0.582250868722922,0.6307053480316381,2.09066430393309,g
2.848685166012182,-0.2424642575447713,0.11001029160881695,2.95803119215541,3.344522510195471,-0.18643932943495023,1.0105543943804973,2.477008592745466,g
2.937336501934589,-0.032831902753379105,0.39261251161526745,2.902816428127881,3.7286445891601936,0.3751622445376049,1.5302603306017462,3.026346522808631,g
2.934475699022303,-0.035304201318091054,0.5056166738462201,2.7610467671390855,3.8491914156380345,0.7440439949823885,1.881461035160673,3.393868369417403,g
2.7444892494548228,-0.36020927635491373,0.28956827337752955,2.354104352900514,3.533634437091171,0.7217253991188042,1.8583712757945716,3.3333279443639006,g
2.4403913366306673,-0.8774307715658004,-0.2019866547399103,1.6558986066540544,2.866601804980989,0.4181623527278093,1.5119342468105197,2.870028602650888,g
2.203705286682063,-1.496488546759553,-1.1547618364755856,0.12010112831747602,1.5569625437517332,0.2568500234063874,0.9711800074042894,1.8271684351275905,g
2.46966218761897,-1.417503318119042,-1.323218148573719,-0.2781388136298685,1.2665671253845219,0.7547927592417439,1.1936054473618003,1.6828733159410014,g
2.939046050048498,-1.2290106545734822,-1.3223484493724853,-0.3288394794921082,1.1547908303097685,1.4440696102745778,1.6507066534290824,1.7423484324689191,g
2.939046050048498,-1.229010654573482,-1.3223484493724853,-0.32883947949210823,1.1547908303097683,1.4440696102745778,1.6507066534290828,1.7423484324689196,g
3.49841423413213,-1.0724843257963474,-1.2733316428497834,-0.1265158128601752,1.0583049637108222,2.0085950055990494,2.077342606686868,1.7997680351887957,g
4.027880137315351,-1.0071812683159596,-1.264035695874894,0.19667351290119012,0.8799880467886034,2.2442053208724633,2.272638482857427,1.7130200565930107,g
4.427972149890211,-1.0180283457485864,-1.3044979297793646,0.5673921441614433,0.6502877471086614,2.163757266878515,2.222183530314566,1.5009503263586839,g
4.65370475668826,-1.0505514467396093,-1.3359446945947764,1.0057746359688975,0.4917704583695254,1.9372346220498637,2.06704431884798,1.2983234651011344,g
4.733912083578023,-1.0473970823871646,-1.2748165341418438,1.5801518683379092,0.5264159914339872,1.7419222076262653,1.9674014097561148,1.226788138319031,g
4.745960718034515,-0.9859240960557933,-1.0630357947913187,2.317544480488656,0.792840771588365,1.6461128265784986,1.9777455924676535,1.2931196891608474,g
4.762179638327658,-0.8876722560230504,-0.6940135814032102,3.1389549642325414,1.2281347566626981,1.5969341708785103,2.020848028398982,1.3838808285437754,g
4.8085600629030605,-0.7805990852617388,-0.20313347466529744,3.8744106573799093,1.721529525179148,1.4958562444421688,1.963560204580474,1.3471839463516182,g
4.853185159706642,-0.6584601672145969,0.36028663701684704,4.3539217366293315,2.195393968132926,1.2949018498683578,1.729339285767648,1.1016050887221862,g
4.824059526810023,-0.48674350060570887,0.9568785298633807,4.510741454650352,2.6552478992460573,1.0498906043883107,1.368947672305092,0.7060511831409853,g
4.655492946690584,-0.23258045127279908,1.5687360009544424,4.420992455870205,3.180439135445654,0.9028952484511474,1.0475138539750717,0.35015845162996967,g
4.337842556416083,0.12620559419192287,2.1947256858994715,4.248504415875896,3.8659164566230606,1.0090865996047138,0.9624470244805309,0.26896367293421886,g
3.918494329314862,0.5957318020079126,2.8240071741497856,4.133275845986365,4.748674271464207,1.4540391734628848,1.246895444688607,0.6299311298574153,g
3.4441922700205874,1.13273867164294,3.4040981044653384,4.106815516674137,5.763785398392288,2.2112930083068396,1.9150014441322605,1.4585310980615147,g
2.9158536468442566,1.6287814451780662,3.8461878459756185,4.099657433200511,6.767890548840002,3.162485310861973,2.8711962553623898,2.645137094127448,g
2.3210440025687236,1.9749468517071356,4.083615504291645,4.03092987288126,7.62302560551862,4.1598539540566,3.9633749368956166,4.023593768606291,g
1.7027687373885965,2.1567035663062564,4.130853044587274,3.897956695845167,8.274893782989029,5.084257117849241,5.040217468814263,5.463084525820438,g
1.1671638766870533,2.257092498949553,4.0735426181325165,3.784865490547157,8.755960943781051,5.86279351844676,5.9848937657400345,6.903433244265495,g
0.8124172078293685,2.353588541002353,3.9926668967682675,3.7845383366603302,9.114018354683738,6.447770939042007,6.721162696991466,8.30454382169862,g
0.6584709753739398,2.430127744557846,3.89755932421465,3.903155166583429,9.335596424704736,6.787390286240917,7.200758891601792,9.551053290910094,g
0.6416469490598844,2.3927365053517518,3.724346331322418,4.02404919340136,9.327845219848141,6.815916976498535,7.3827949523908645,10.399163428386029,g
0.6619372042269632,2.146886285804051,3.3879212796114837,3.956870484284958,8.96592543416638,6.469619043734556,7.218730625845643,10.530815247467611,g
0.6459624985767267,1.6619110810354278,2.8455932066474796,3.5422412283138947,8.172525876053978,5.717537522122603,6.658490660899297,9.701599015946794,g
0.601958005408036,1.005565685343426,2.1426404860419863,2.75229091661937,6.986263306699895,4.590104082379268,5.682690989997253,7.892315017959926,g
0.6316394828965859,0.34263468410280773,1.4166579695796908,1.7280196244137933,5.576955256812093,3.1903365989714745,4.345338917496539,5.359911244531508,g
0.8664788954544516,-0.13086256250247816,0.846472090421258,0.7282354198727308,4.187986311174752,1.6812168247591586,2.7984128775798434,2.5460531659122716,g
1.3663186491482822,-0.2934165965720177,0.5720478984903344,0.02064606291041491,3.038154648512483,0.2545768173067722,1.2744235477559969,-0.102262081245496,g
2.075421340488621,-0.14683298577256293,0.643837777610888,-0.2189975155146601,2.2499751791840312,-0.9091669020075696,0.021710954776534664,-2.28760245362536,g
2.871800029719882,0.23474765229967964,1.0267554296757901,0.04731343375392409,1.8401051994858846,-1.6845803310231684,-0.7861242638598929,-3.905606772066154,g
3.640872729095174,0.7736224071148923,1.6270216243313462,0.7294393536575375,1.7488738748055561,-2.0385481268739594,-1.1202382869976897,-4.976440400288121,g
4.303892419189462,1.3946402380202845,2.3151026750369015,1.6546175331769402,1.8763953455765112,-2.038556616749255,-1.0972428157046423,-5.536840039510723,g
4.817167197157032,2.010267328666196,2.9644016722437945,2.63881281793128,2.125906506042783,-1.8100472888886017,-0.8982452713272954,-5.572214676443445,g
5.180295308651883,2.5563288452016124,3.514914608168816,3.5643874396048205,2.4559313452563702,-1.4547203071644943,-0.6524242044205014,-5.022181981423492,g
5.4297606647220675,3.0379939312100217,4.004237053530046,4.411776232082983,2.901534587270225,-0.9850724276359072,-0.3656533967160014,-3.843776739196767,g
5.581197696535644,3.4930098615002274,4.501591153905124,5.201033035125553,3.5200998025604173,-0.3344646720677685,0.05123842934227314,-2.0910560645665566,g
5.560303428818385,3.88891981942107,4.978216851134343,5.877962643800874,4.285671763338972,0.552382462756144,0.6740757085629945,0.03737599134928882,g
5.203577917493987,4.072498966490843,5.2360266449990585,6.251422232375408,5.022681762447938,1.6155635402956698,1.4612636239965497,2.222038093075382,g
4.342650168241628,3.831827825971147,4.980854985729213,6.0588001371934705,5.450069424805715,2.652291591314447,2.2379694041492697,4.119692529925688,g
2.9052230495346367,3.0145596701002657,4.001685785252624,5.1242752983198105,5.317778194723205,3.399626958090367,2.7831747230445516,5.482470295370004,g
0.9662824261983765,1.6205657492022614,2.3257915215395215,3.490102298275949,4.543912262187088,3.672574503526959,2.95322748794516,6.221877643132463,g
-1.273357892402318,-0.1754191085984579,0.23032592946508296,1.4172598543713821,3.2551840966092174,3.455281985022894,2.7496843021290123,6.375693691528947,g
-3.576173370486532,-2.096226917407041,-1.912653350987607,-0.754625944436976,1.6930528699673648,2.877096533986996,2.285477253107369,6.007371790965023,g
-7.874967688372017,-5.577777764811857,-5.602556683957805,-4.688200661285517,-1.6858239344764065,1.1549821982925255,0.9681719916568546,3.629123636446399,g
-9.9041227463508,-7.1888226414403675,-7.320167417495779,-6.561335482986758,-3.6264776838243797,-0.014463466898741117,0.07754411008872282,1.4776168887129764,g
-11.889083001786451,-8.853280999211858,-9.149917856138408,-8.521946148713594,-5.895110452575838,-1.5496723590394597,-1.0980623287744098,0.5130462143852048,g
-11.889083001786451,-8.85328099921186,-9.149917856138408,-8.521946148713594,-5.895110452575837,-1.5496723590394599,-1.0980623287744102,0.513046214385205,g
-13.768553763046238,-10.560009010346247,-11.055859647786288,-10.52418060366846,-8.440805880132789,-3.5098520475766066,-2.606395233657681,-0.7146606410062073,g
-15.469959771764412,-12.195521002303218,-12.848178873915336,-12.388746271219564,-11.029456097551034,-5.802729003869033,-4.379896282034936,-2.0497371494760896,g
-16.98910571732477,-13.635462408908268,-14.32343268433326,-13.936327905002106,-13.360012838425245,-8.207659477985088,-6.2489316429109625,-3.2789224547441145,g
-18.38399628931126,-14.804387416537054,-15.3863236416599,-15.1060364879385,-15.21078053888757,-10.467315620333846,-8.005868615421011,-5.826036144252319,g
-19.697763731846397,-15.680988725166326,-16.06762777756418,-15.961558825589346,-16.512254163026892,-12.375296101991552,-9.47589980682944,-7.88773611997681,g
-20.895945554448804,-16.282174897745538,-16.45549153527597,-16.59727462569149,-17.313441404359892,-13.809456042115462,-10.556990643797612,-9.444984077728195,g
-21.87637616668159,-16.637574358964677,-16.617022848840925,-17.039940721739836,-17.68685879480094,-14.715269633301073,-11.219217611714264,-10.415481329447102,g
-22.553868010424047,-16.76598480907494,-16.580001191987538,-17.237233684827267,-17.659362713133337,-15.0810110838683,-11.481915781772189,-10.650906203051779,g
-22.97153414111708,-16.692404635782175,-16.383748595971184,-17.14185946457404,-17.23009123262862,-14.937140662441687,-11.392895312225289,-10.04187409441171,g
-23.340963390908843,-16.49889709649024,-16.13164022319641,-16.806407635920316,-16.44884535685855,-14.368290690242768,-11.015706316759701,-10.443160028651505,g
-23.926603956448126,-16.320711588085896,-15.961432064843024,-16.385436361081453,-15.457947578955748,-13.497327988679283,-10.414323569889415,-10.430223619570747,g
-24.824000158833176,-16.240496723211102,-15.935621394064233,-16.026415367407505,-14.434205118088348,-12.426502058507268,-9.631528499746253,-10.158564980975855,g
-25.824660349348125,-16.182952409773378,-15.959906477743127,-15.744814065655419,-13.47819899068086,-11.178893245904737,-8.676649524748893,-9.782491064888138,g
-26.519468901044785,-15.94946066151075,-15.830322898570353,-15.404795055290098,-12.561127659662215,-9.706718397898504,-7.542598108710651,-7.77215201437708,g
-26.576198937056567,-15.379896021406804,-15.384335522491174,-14.834342812910938,-11.585681044613953,-7.983920811100096,-6.251883958493531,-5.831088899285177,g
-25.96797262224688,-14.490853068232132,-14.629360108345688,-13.981846002150382,-10.51073294556695,-6.118087084659924,-4.902587617213858,-3.9455471956107173,g
-24.984156852438687,-13.482206235828315,-13.74687439107493,-12.982578070687932,-9.434172166162488,-4.379789441461531,-3.672560508188911,-2.2585192624444637,g
-24.029997954250756,-12.626320743476633,-12.973008279844242,-12.075019096694188,-8.558927965448039,-3.0978454884392037,-2.75959590130654,-1.0480580586374573,g
-23.352673401094947,-12.107330500054662,-12.437429428860074,-11.425477531852568,-8.053200270971274,-2.474488977540799,-2.2825603798070153,-0.5695630690053898,g
-22.871688259275114,-11.890424007448633,-12.067625780913056,-10.997835584025198,-7.905078808731638,-2.4533332090447817,-2.2112381304810453,-0.8916393210015553,g
-22.245097813643582,-11.724413749852461,-11.636831651561574,-10.583042661099485,-7.897947702247505,-2.753436007105735,-2.3870538428108294,-1.8599663856766835,g
-21.15089577595362,-11.323791559385024,-10.940432411619538,-9.979234183460482,-7.747770418352909,-3.0628564191987495,-2.6313170811913897,-3.21179809260027,g
-19.57377284949894,-10.603390610493857,-9.969463696542068,-9.175441594572607,-7.298221608927595,-3.253104503896317,-2.861946688135356,-4.737891569714098,g
-17.853625657482475,-9.74713366547498,-8.930226656622388,-8.373180640089455,-6.609091680864298,-3.4495718705731093,-3.1279035123412324,-6.359457752570165,g
-16.454464927189317,-9.047000149834878,-8.089384786531962,-7.821116433130226,-5.873003250771231,-3.9065247710295123,-3.540036794283145,-8.074459351783744,g
-15.654870095106242,-8.680374792191644,-7.580357315506468,-7.608963356051322,-5.25143153711654,-4.791867645571839,-4.161070162508122,-9.843885759659184,g
-15.39767641899896,-8.620155714631053,-7.326638961979266,-7.597782854369369,-4.772586687404562,-6.049794898699181,-4.939110681998543,-11.52805864163954,g
-15.374633791950526,-8.704071295316696,-7.122567701004977,-7.535908536511272,-4.35447664044513,-7.434444383936904,-5.7233477362056515,-12.921483827292864,g
-15.254873562601508,-8.766590943440082,-6.7950025590818965,-7.2568378134053475,-3.909771860309531,-8.669919233867772,-6.340253174133837,-13.842704491511864,g
-14.901559778866664,-8.74552119662712,-6.331866253747289,-6.802663985160921,-3.440238047763829,-9.602602647059502,-6.6754444947269205,-14.197567551717558,g
-14.44019213540324,-8.7104767514832,-5.893562582706316,-6.383345032121106,-3.047609772122514,-10.232274414555466,-6.710365526571053,-13.973221002112956,g
-14.134600579406253,-8.788790835785807,-5.69981099930554,-6.210734319348079,-2.8560289185299417,-10.617956612065266,-6.499234843610509,-13.190345698265412,g
-14.172312019271757,-9.042734244517055,-5.878616142591809,-6.345087595664822,-2.9173995832053627,-10.760174367826885,-6.11622894033809,-11.874083882506284,g
-14.537285991341909,-9.416713704184009,-6.3957994889844425,-6.675505912832525,-3.183460711410455,-10.568420775689797,-5.615468127354875,-10.070139529530552,g
-15.053628673447117,-9.798227236690472,-7.103324430359697,-7.029683384810957,-3.553329121292014,-9.929016518556743,-5.017710722345801,-7.873790764974025,g
-15.520478532868239,-10.095646068027524,-7.8362826535984125,-7.296681230322183,-3.9288613081812414,-8.794658058862296,-4.309505542600048,-5.426924604342762,g
-15.814636913039271,-10.237076471436186,-8.47503776064734,-7.463030532021342,-4.226032467611871,-7.213979668589509,-3.447401863921146,-2.8836368948074638,g
-15.922809151988513,-10.134741452447367,-8.96014681543614,-7.5695683008512145,-4.364339416083997,-5.292191730540321,-2.378688737630979,-0.38562808563925854,g
-15.928735195658328,-9.71282819764269,-9.290211431332498,-7.661530550672836,-4.279845916484314,-3.1367807570240402,-1.0817441822450187,1.9270348135413584,g
-15.966222154721503,-8.985484128182227,-9.510179227439263,-7.773996326464463,-3.9601537773070548,-0.8417029943480092,0.3986496559647679,3.891388314149053,g
-16.14515028343981,-8.084008205052637,-9.679549121840523,-7.936761412058385,-3.4614341229894214,1.484482599842896,1.9521903225097332,5.324671391412829,g
-16.495633671166644,-7.197782278923357,-9.832738253138455,-8.169637109619973,-2.886194244373074,3.6875235478553328,3.4438400095372095,6.070563689630509,g
-17.50534652071177,-6.037291075920004,-10.017757795038666,-8.778208151046773,-1.8735273499772027,6.999834042667739,5.855241520668784,5.35957204071382,g
-18.024538362738237,-5.820156704161406,-9.960664816204128,-9.044184953437043,-1.5010222083444744,7.870641642482967,6.683632504124878,4.1196052517126205,g
-18.48775644995577,-5.756741441310724,-9.78738071609242,-9.227107255434003,-1.2022641889837382,8.198420881898315,7.202443166283553,2.528618643998762,g
-18.48775644995577,-5.756741441310725,-9.787380716092422,-9.227107255434005,-1.2022641889837382,8.198420881898315,7.202443166283553,2.5286186439987617,g
-18.897360174209123,-5.809513781605938,-9.582225954728711,-9.367555716880961,-0.9995944950035127,8.009282840589997,7.323384320164729,0.7267210849259298,g
-19.31034535300587,-6.067180210511975,-9.5048741329716,-9.577383393263686,-0.9867146730232861,7.283532379738064,6.9402025033243415,-1.2155891630355862,g
-19.797085869546404,-6.695291696624537,-9.70021856160272,-9.958605100208747,-1.2818437967801652,5.955726680111235,5.9890386396536375,-3.260257832657986,g
-20.369985891761775,-7.773516481712481,-10.18056086604305,-10.497405597227397,-1.925114561413221,3.990374339639098,4.506894324189007,-5.333843113096447,g
-20.95352284785268,-9.17988996718867,-10.784504005563964,-11.028860506080536,-2.8066620464070615,1.474535413203853,2.651612295693284,-7.2772648692909225,g
-21.425041116981962,-10.636019656687148,-11.26273195046413,-11.321869120342415,-3.6939151357525075,-1.3500647732548727,0.6716367274232311,-8.85116053650851,g
-21.682292962963537,-11.85733840682317,-11.430613638803544,-11.230188448899908,-4.345552457367599,-4.148165952815765,-1.161573313220814,-9.805783542848243,g
-21.689453350790668,-12.680080314946947,-11.274807383298505,-10.79338921735203,-4.633690501244358,-6.606928093490787,-2.6297723593640505,-9.983797513906309,g
-21.492116164066474,-13.102087056349115,-10.942199664940514,-10.208190186381298,-4.592119561102645,-8.526027257801363,-3.6176547308076366,-9.391744984709288,g
-21.19608589389412,-13.237973629748614,-10.62203268959891,-9.69036053279646,-4.35848726861878,-9.82318007086067,-4.111942402785914,-8.185599922961988,g
-20.89877337128791,-13.205209216363523,-10.400024850786156,-9.328976948417663,-4.050645038007572,-10.466836906056056,-4.1562975316933,-6.575694209434725,g
-20.60641900302827,-13.00151365916587,-10.185894664801387,-9.038649589300954,-3.6684196917090794,-10.405964704319388,-3.7968654763850465,-4.718635885981115,g
-20.21464838698085,-12.481310866290459,-9.770305756153011,-8.638805300060671,-3.096942795429202,-9.563016620508245,-3.055200830474114,-2.6706548595024038,g
-19.583928674739685,-11.474220051124473,-8.971186504655291,-7.99253346322252,-2.208856320123395,-7.900870523202334,-1.9453608897925025,-0.42837714595977194,g
-18.647881363751043,-9.946644663008268,-7.763117908414088,-7.102612806110097,-0.9886390008343777,-5.518148431127051,-0.5280448073600406,1.9727854294864087,g
-17.472615266497186,-8.069139584644486,-6.309833520408219,-6.112300730870954,0.4043092876286899,-2.7042549043311483,1.030876797119881,4.365173370940164,g
-16.244447700211975,-6.1582421294849805,-4.898281698343306,-5.232315721989206,1.6696480437561505,0.0998991212178586,2.452769544609887,6.430083497639269,g
-15.201943828167378,-4.552965409847963,-3.818210334561601,-4.645791154247892,2.4835475920010053,2.4400475304280826,3.4313957302190956,7.792632249434407,g
-14.526982977270873,-3.478426077798718,-3.233491937820655,-4.4314530093429125,2.6502323171285602,4.020431948748287,3.781572954460214,8.192709957313468,g
-14.238864598462357,-2.940290315846022,-3.0991777335778243,-4.5316084304750905,2.207457798507872,4.802511805759877,3.5458332285856926,7.62124690879961,g
-14.180961648652953,-2.729995684181776,-3.1876951529211874,-4.7836293706712905,1.4060319509464803,4.960278705587555,2.9613000987510865,6.3185616793794654,g
-14.145677364401815,-2.5855960300993734,-3.240806439080564,-5.011432356142189,0.5513601079027702,4.720826200384889,2.293102359551162,4.626846737935659,g
-14.05348930394744,-2.407040729187522,-3.1643062636077453,-5.13731559832141,-0.2007919484984962,4.198392514069567,1.6487889493012424,2.7911156962836428,g
-14.036835461580072,-2.3416592223610224,-3.12383412412822,-5.249108849693942,-0.952311751389032,3.327871618411976,0.9058058266386974,0.8367054967036556,g
-14.361585498676906,-2.667854049316325,-3.4539956555461644,-5.564529707465872,-1.9889291075328195,1.932099783881539,-0.19531300290355674,-1.392968442133994,g
-15.247313685258808,-3.58399332500288,-4.424016433359277,-6.2855603845055565,-3.5625769565550462,-0.12838316977347777,-1.8526934771573154,-4.051542344920929,g
-16.703205311995283,-5.06026123747897,-6.014959727114907,-7.421624373919698,-5.673958893726248,-2.824837376238635,-4.035111631629158,-5.312283104888303,g
-18.481231573261233,-6.837403227364419,-7.877882923838165,-8.720950607251309,-8.016880660949267,-4.043399891250145,-4.8531196125613025,-6.388796808099327,g
-20.197049358874345,-8.572116339284133,-9.532351929123902,-9.799500349171087,-10.146659106659786,-4.926036098714991,-5.37146263349046,-7.044722327901549,g
-21.566642634893174,-10.052772057122393,-10.680931383289158,-10.396865952406873,-11.764978390709667,-5.372922916870999,-5.505970764079533,-7.150173227152811,g
-22.589787843734705,-11.330942993524442,-11.39729276519898,-10.556844832413828,-12.902259456049018,-5.455206185836998,-5.336978821905974,-8.192875899109708,g
-23.51817363990697,-12.636281364838078,-12.026548856332266,-10.575316313861745,-13.845621398715243,-5.332730063354781,-6.502777436631217,-8.686778066566129,g
-24.628373389476415,-14.130046506298026,-12.87856611259212,-10.758348392503045,-14.872913296054245,-5.126950485620975,-7.475430180635584,-8.894419084833928,g
-26.003135221191542,-15.72933941526884,-13.977537230413603,-11.199221662618182,-16.02037363687269,-4.834874454477365,-8.240096409115136,-8.881471391720819,g
-24.690187573544854,-17.16688697720487,-15.07209739363492,-11.755247688776826,-17.07278960067737,-5.843878206325912,-8.645638694044687,-8.502713130577746,g
-23.092307918139767,-18.20482486810355,-15.872727007627883,-12.220823611921091,-17.763925414284877,-6.122629891609122,-8.531297107482803,-7.59367633365858,g
-21.067349293410203,-18.79207544041755,-16.30029141924785,-12.531468006213121,-18.005404596844944,-5.626483090176621,-7.875106693249675,-7.963271575402639,g
-18.65320599183365,-19.059550632793155,-16.549848301208208,-12.828794542757379,-17.962223467076626,-6.324604633848759,-8.453456425647136,-8.363714097499438,g
-16.038237894495364,-19.205668217380612,-16.941760872654005,-13.34942856642538,-17.932890255054332,-6.922854681483498,-9.086080386111515,-8.971578325752507,g
-13.439086838273841,-19.37229496127772,-15.487060967316804,-14.246607038855448,-18.143187026918106,-7.444892546545527,-9.791529452406907,-9.85947296391801,g
-10.96939586421613,-19.58448901043858,-14.221557485618922,-15.493176717168428,-16.593320770101293,-7.868075107467456,-10.495996966892124,-9.538910827040969,g
-8.595912395673011,-19.789454165149944,-13.05141982928372,-14.790166774531667,-15.127507269605285,-8.183573649429142,-9.621331438032643,-9.572189547793256,g
-3.6878030972977243,-20.125688305819402,-10.536413484196133,-13.202393089077413,-13.948908708228592,-8.690291320416751,-7.90434336669026,-10.155607930095064,g
-3.8104370071327542,-20.338962619107427,-11.237488356744446,-14.16796693198927,-14.022584188384295,-7.468502649304346,-7.122149542722951,-10.699984186617248,g
-3.926900348074839,-20.54638940133697,-11.665600209894576,-14.748802718126251,-13.841406317628607,-6.579859967906776,-6.4259522468307235,-11.449836223593206,g
-3.926900348074839,-20.546389401336967,-11.665600209894574,-14.748802718126251,-13.84140631762861,-6.579859967906776,-6.425952246830725,-11.449836223593206,g
-4.036705800856947,-20.624735195011347,-11.779676368706216,-14.92729861057098,-13.384310733761907,-5.856914430003821,-5.76075768188672,-12.344334611577393,g
-4.139366046212048,-20.504956699089508,-11.557404285688078,-14.814063463820812,-12.662374166261923,-5.176498580209194,-5.044666098463807,-13.269008922440756,g
-4.234393764873111,-20.261943860278713,-11.043939491274767,-14.615433775683703,-11.758118866366255,-4.5723933899499745,-4.264078627274789,-14.131690253054794,g
-4.3213016375731055,-20.074881520643462,-12.566925444903273,-14.516099293601073,-10.819097706003095,-4.241722354142789,-3.5322053954751036,-13.242254530311968,g
-4.399602345045001,-20.11540151862999,-14.23662797472286,-12.440903689432856,-12.028359300834175,-4.421649695398136,-3.0462321830856625,-12.144655814364478,g
-4.468808568021767,-18.15526148859348,-16.09431327807901,-12.462384129184949,-13.503746887416886,-5.213973146255723,-2.9605983000294533,-10.933960310954763,g
-4.528432987236371,-16.20261491518862,-18.130541583372143,-12.500385342551633,-15.196148363524046,-6.490092090125631,-3.274429048540822,-9.679414074716735,g
-4.577988283421785,-14.273259549750453,-20.291297982537515,-12.557908513396075,-15.142959896264065,-6.224418765924023,-3.8311466341018408,-9.903803959007394,g
-4.616987137310977,-12.408168380577848,-18.203763635925938,-10.658398761492244,-15.309966385787359,-7.609544068387858,-4.432222583112067,-9.898304332621422,g
-4.644942229636914,-10.684602470594161,-16.340710756101224,-9.001819243521647,-15.715108947819889,-8.798191102597746,-4.962602042566248,-9.673157235677085,g
-4.66136624113257,-9.159477839148504,-14.708446503418234,-7.570904013173758,-16.398357666211606,-9.828556027551944,-5.419450822877108,-9.237848806098537,g
-4.665771852530911,-7.788027213020345,-13.244610419909941,-6.208779359912392,-17.350243097689287,-10.745444769681948,-5.83239175746394,-8.574698694893513,g
-4.657671744564906,-6.409781051346324,-11.830704725905047,-4.697286606134351,-16.508366793009962,-11.457060723701325,-6.161580552134325,-7.6555535256487275,g
-4.636578597967526,-4.827036785488092,-10.341778144261218,-2.8928545475847436,-15.540659967283549,-11.727067710505533,-6.2716843795866914,-8.14622065331313,g
-4.602005093471741,-2.9036239920788214,-8.689286965357068,-2.936306542459725,-14.330311234975246,-11.318925606338684,-6.009515891203799,-8.577336878850108,g
-4.553463911810517,-2.9171916562828306,-6.835011417513668,-2.9406400414001417,-12.847942973845912,-10.18130883199672,-5.3261719055719645,-8.965489601705679,g
-4.490467733716827,-2.8915621969677314,-4.790896757541372,-2.9068726175820414,-13.014804884887397,-8.524913879148015,-4.343718770320487,-9.333240022681956,g
-4.4125292399236375,-2.8317017982084174,-4.70205620995059,-4.82992974143874,-12.888002299974014,-8.456116720723044,-3.302660908909001,-8.218135575914296,g
-4.319161111163919,-4.651084899291439,-6.568068001430829,-6.513437363776193,-12.57009610350338,-6.836896116214137,-2.4214671366661875,-7.368964871827346,g
-4.20987602817064,-6.2749068806152675,-8.290174650586469,-8.069448961679422,-12.111073647329485,-5.535049501617572,-1.7789583839049918,-6.787257368211894,g
-4.084186671676772,-7.676614805615342,-9.886068774632069,-9.553445327252366,-11.471288496067574,-4.5016384336351365,-1.3156351192098257,-6.420284805804497,g
-3.9416057224152814,-8.852252693491721,-11.317214676997663,-10.921954882420744,-10.568542251530499,-3.6521771611179084,-0.9447810634838166,-6.186059094070257,g
-6.406442103240847,-9.852359703089597,-12.53367662762093,-12.071882158426295,-11.320851737608276,-3.0069376947657354,-0.6660308229610321,-6.0108327797153915,g
-8.621325245071247,-10.763507929499465,-13.518327568240869,-12.92387161992912,-11.93014578674836,-2.698886731917857,-0.5768533134692979,-5.861085654715731,g
-10.593500439671274,-11.646980960963614,-14.296448612631702,-13.481586000647246,-12.436629070097366,-2.849149051613566,-0.7753272380287669,-5.7423888703122286,g
-12.362588160057829,-12.498900401364082,-14.914842235686876,-13.825693138390534,-12.84834712349153,-3.427714956712028,-1.2470668194112828,-5.656667757197276,g
-13.98359800626341,-13.270007593705156,-15.412905542294459,-14.055639485745914,-11.271735601986036,-4.227201062446233,-1.8414908838939374,-5.552522198983651,g
-15.503460363010372,-13.91592245908999,-13.717024922781409,-12.236854225856577,-9.725240781687788,-4.977273870092759,-2.3607373304017703,-5.323094259412875,g
-16.94243195910703,-12.525086489587721,-12.097823949236778,-10.573185450169209,-8.214051862779618,-5.505785533167745,-2.6844288940593137,-4.867639180160226,g
-18.29369603611277,-11.225245394994491,-10.492805443460904,-8.941515496204982,-6.785043769742484,-5.813454767610534,-2.8250915713879454,-4.167888979325451,g
-19.529115002165074,-10.126313803075861,-8.91941205778042,-7.290857180545162,-5.514553175045844,-6.004253758891662,-2.873552769040312,-3.306921465168112,g
-20.585791122217433,-9.286541579971292,-7.450223178547832,-5.671786071012949,-4.440723411551018,-6.136681098443661,-2.887021940393999,-2.4044277409204278,g
-18.71990073332019,-8.610624432235328,-6.115052130528614,-4.148490614192329,-3.5012524588593052,-6.125950989504899,-2.8138539967601077,-1.517067393669358,g
-16.63368346161927,-7.862130754520919,-4.839672586887312,-2.6974083349877143,-2.5509699689652847,-5.782642729589272,-2.514795155517258,-0.58934929923728,g
-14.208158156656527,-6.817840273918799,-3.4895070111804856,-1.2063100853499953,-1.4629307498922828,-4.960447476510586,-1.8671930099388743,0.4958519220698606,g
-11.411470351804827,-5.426867726230734,-1.9733797845381815,0.4256374905120116,-0.22799288649140226,-3.694733040692939,-0.877075330051486,1.8031896615772283,g
-8.311046180163318,-3.8248105031661743,-0.308824722920496,2.1950255671527508,1.0391375100497782,-2.2148001641510353,0.2883475398882296,3.2658925174554745,g
-5.0089388938605905,-2.207902981888912,1.4016588680735282,4.004873202665385,2.1949564531643895,-0.8088242483909053,1.3836556273939742,4.717597856858656,g
-1.5629972833901253,-0.688875923796433,3.0561555318836326,5.765242970550986,3.1833702839576774,0.35912256660288355,2.231131168792192,6.01301373542771,g
2.049697436216403,0.7706401210727882,4.633637593685959,7.482218571442455,4.080432230555063,1.3356894152562826,2.821155776088772,7.1329000157087155,g
5.901970141467027,2.326141070255551,6.207521443494454,9.248051894475532,5.03407451058766,2.300564146406919,3.2908650700838016,8.18256010716119,g
8.886655392280002,6.170724526379002,9.649008190866706,13.10309525582484,7.37505495391063,4.585163978049429,4.413225679020892,10.485377463348657,g
9.784175239196653,8.258320016571695,11.422003790721586,14.964851653881084,8.57227994132802,5.70263564691419,5.0404485065953,11.677780068912007,g
10.114474764168602,10.117407168464611,13.022664597653389,16.520427684814884,9.570659097174994,6.557452077539891,5.519920724718665,12.706239316854004,g
10.114474764168602,10.117407168464611,13.022664597653389,16.520427684814884,9.570659097174994,6.55745207753989,5.519920724718665,12.706239316854,g
9.880033458753584,11.589210449395383,14.334575011987448,17.682387792555275,10.30269778136786,7.08672263972708,5.727675344414291,13.44948893584942,g
9.198106707353233,12.709201480357144,15.362281744855247,18.53118894589622,10.822736205459371,7.388591916475259,5.669954677925426,13.891627637859306,g
8.212603964190487,13.637409779862542,16.21009595197222,19.24674229841363,11.247227732268728,7.641546034379208,5.486157521117811,14.114947956484908,g
6.996662732041152,14.539189229904641,17.010929985056414,19.98896678219786,11.67775954163159,7.978778802836001,5.363925675979899,14.24099914152264,g
5.515685617072298,15.505236056017887,17.85741940519734,18.728527273342348,12.160534065470616,8.412232789700198,5.426677323622397,14.370665358255767,g
3.6639544665913837,16.51783136833784,18.762621401710152,17.33476517539523,12.686749819354691,8.851678397085369,5.671745455090285,14.55632989354911,g
3.82869909664767,17.464147712186257,19.664196947045976,15.734497120907104,13.21559474407172,9.188787854884438,5.995324710191632,14.802128512106055,g
3.9606116429685976,16.260849886053023,18.287021708964655,13.931475986069703,13.703642476650177,9.374049797684707,6.273794909910714,15.071338763780346,g
4.061241085841277,16.767210687827294,16.740619716355035,11.99665503159307,14.12496339599009,9.434677515477604,6.43838419075812,13.653128134665911,g
4.132136405552819,17.089750112218336,15.077240714548102,10.01841717860006,14.472417585723601,9.43940246221355,6.501609349523653,13.756037832162438,g
4.174846582390333,17.324287681930354,15.435363406344743,8.058348071242957,14.749226534993127,9.45340951786279,6.534238525080324,13.696172618831767,g
4.1909205966409315,17.521832361828693,15.686160872283086,6.133072361397674,14.964247753138078,9.513817760394925,6.613241376486222,13.493897465641002,g
4.181907428591723,17.66940764414821,15.831751752692487,6.092285976199986,15.125515155278535,9.623531828466888,6.767509331990771,13.21128388581619,g
4.149356058529818,17.70955913636399,15.8365580252004,5.885344464163368,15.22242382362757,9.752901797634426,6.9532210044431295,12.895926411921945,g
4.094815466742327,17.561912972158353,15.634768492454295,7.535058159413849,15.212458916395775,9.850323290584038,7.080282242202697,12.541805801336759,g
4.019834633516363,17.159676789463187,15.16605626624704,9.073625858340076,15.03738656112912,9.861764945273977,7.07245427351275,12.10206975908976,g
3.925962539139035,16.498530156517706,14.416744847167823,10.490015589803724,14.659446308569878,9.746002189465583,6.910652773069448,11.535707100291846,g
3.8147481638974527,17.594459278986253,15.611392287408725,11.776089923999367,14.07972904885167,9.475991933456257,6.625871252545555,10.845152199230402,g
3.6877404880787275,16.610702228763497,16.641830471054796,12.92553719937265,13.325189244954021,9.03603803029176,6.259436342102859,11.721776613074363,g
3.5464884919699684,15.528903704031654,17.502509121109608,13.934085086123153,12.431288642144319,8.42779800546654,5.834400642775004,10.948722367403587,g
5.733829174672641,14.358204976164018,16.125554515526993,14.805756681050653,11.443650996592782,7.6802514476254515,5.359865862252881,10.216642023087218,g
7.7235795117332575,13.13286431365187,14.709465717092144,15.557151820980067,10.425154870157943,6.847728375075137,4.85264164021348,9.535507930471864,g
9.49323787637208,11.900325774629724,13.291022148356722,14.333080796128538,9.442803159539897,5.990477067840712,4.344897327635904,8.88970730713741,g
11.016676266814056,10.675219932100509,11.889157193742362,13.135959869338757,8.535633381145768,5.1486906508724495,3.861628021101467,8.263955468235451,g
12.280141882077581,9.436757615349856,10.50438461396414,11.96136296080208,7.690617970437802,4.328120970906432,3.3860126733588536,7.650197285941789,g
13.297606887881495,8.172223303303266,9.12888244589866,10.81929344775018,6.850280885277671,3.511708826891129,2.8550049939499784,7.031571765940382,g
14.104050202924366,6.9023974381508735,7.757294684342028,9.721649027330663,5.954972817078122,2.6960843330990016,2.208544022869691,6.373860340594962,g
14.735696282102733,5.6702398487879675,6.399906451751079,8.678273666040203,4.999924494309055,1.927933763171907,1.4599203431428796,5.648548523231158,g
15.224696844924846,4.5298477560861405,5.097697547019357,7.705066723820631,4.067576347147588,1.3047509040712018,0.7206785648935325,4.872846007058764,g
15.606702140811626,3.5394595386105747,3.918104597038071,6.825979114581574,3.2967253987439156,0.9273485195219411,0.1462038717691869,4.127632360241664,g
13.571515766580458,2.726725944384915,2.914785403341478,6.053785765197538,2.792502142022559,0.8328809393132985,-0.16160570505005228,3.5275521030366024,g
11.646957700927725,2.046748133662495,2.0765905094973895,5.363386934033261,2.5414177577810584,0.9576775510374969,-0.22006071785670028,3.153082668127683,g
9.817140391163708,1.3991460862641234,1.3162929319428174,4.68879070913224,2.4078947739229575,1.1594656047858267,-0.15052326469718064,2.986677726704478,g
8.060576522003464,0.7053088603965294,0.5191147165396752,3.955661307592152,2.2258162071656264,1.287889040363702,-0.09376514631139968,2.90341442940598,g
6.380522358750089,-0.03397449781669128,-0.3790544635402776,3.127913992607148,1.9189229793204554,1.2627206874628052,-0.11564616038468498,2.7375622248057367,g
4.813174800355552,-0.7458370964181078,-1.3334063579969393,2.2350058495251885,1.5617018530393576,1.1142932465580202,-0.1694460100016873,2.3889627993623526,g
3.4218876330662837,-1.3228456087611111,-2.1921416089894774,1.3601933116659168,1.3353592730199364,0.9573846975273346,-0.143419555874769,1.8901650804370576,g
2.2772214179521093,-1.663282044829772,-2.773834556301288,0.5944926494412585,1.401587430649892,0.906676602090922,0.038976457548933884,1.3758236080652044,g
1.4149585670797886,-1.728884908701048,-2.983705409052516,-0.011442672151593091,1.7765524194940436,0.9882589233602348,0.34293137625809494,0.9758886592243086,g
0.8060267695397473,-1.5937648359209604,-2.878063306380313,-0.45394399627665605,2.3035836758370967,1.1171365162247655,0.6328159811094807,0.7208263170763161,g
0.38912812908720873,-1.4074493021233272,-2.609332731722766,-0.733250507906452,2.7570198855333876,1.1610383246844307,0.7594722647186283,0.5309458703406206,g
0.14031054857450892,-1.2754122583190715,-2.298036898195277,-0.8157577319373315,2.992522561708644,1.031691789884427,0.6462834706348206,0.2809842784168776,g
0.23003543185185743,-1.0611554029592771,-1.5460563887523064,-0.3243272606265215,2.885451638468418,0.2673307708913111,-0.21975355160342244,-0.7296933807302667,g
0.5020645572334572,-0.881241959691432,-1.0480437160314202,0.05417981619800134,2.6603494154544824,-0.30607331267686017,-0.8867856900914151,-1.5074668221139234,g
0.7945612540870206,-0.7010182561361387,-0.5270948595465751,0.2894012078200555,2.3053207033080954,-0.9962217648245435,-1.6671705841373161,-2.389584589088133,g
0.7945612540870206,-0.7010182561361387,-0.5270948595465752,0.2894012078200556,2.3053207033080954,-0.9962217648245435,-1.6671705841373161,-2.389584589088133,g
1.057505964179736,-0.6002961223414202,-0.07696873188152668,0.30717244027540436,1.7749348827708307,-1.7896822640355672,-2.503705428068856,-3.260571025945417,g
1.3280794830818379,-0.6250138483524813,0.24093534711741488,0.19891879264644519,1.0834402747624428,-2.6257486119651445,-3.294809171635355,-3.9797408825746636,g
1.6706665052954104,-0.7685361391444603,0.4257484092893177,0.14430863556037715,0.33088321483133115,-3.395123396530316,-3.920437254030759,-4.428337171113083,g
2.092451107401965,-0.9735181175341496,0.5162504280914837,0.2603765766652416,-0.33645460465572946,-3.9745238549866633,-4.292521167179592,-4.56553155545759,g
2.501472577302667,-1.159031726919087,0.541774455716495,0.4995427978060201,-0.8025218972069765,-4.271367556543767,-4.390063593081619,-4.45003323413773,g
2.7355399143384767,-1.2810638532835568,0.4880259420798305,0.6797968774192882,-1.0416881856475766,-4.248416836487119,-4.2510412198851615,-4.196554928148486,g
2.6627530459328144,-1.3679388336609206,0.32010538479938033,0.6310838195480792,-1.1120961542366328,-3.915250522286901,-3.927262826636857,-3.886946539632093,g
2.299384538154849,-1.46898570622424,0.050259111285417477,0.34503761163632285,-1.0832138772757427,-3.3022800421489875,-3.4408839033577223,-3.504019158665364,g
1.8309469195790733,-1.5721586392031717,-0.22958503686798273,-0.004759641813378379,-0.9680009749761206,-2.4487324503943486,-2.78304857645958,-2.950224168892855,g
1.4774588920227691,-1.6076163058761233,-0.4091144463959859,-0.20390349778914146,-0.7310945228885227,-1.4166562300534034,-1.957336868874848,-2.14560449393636,g
1.3107574689575816,-1.537403377529719,-0.461470170042411,-0.17974724942638867,-0.35926623139837144,-0.306174228969441,-1.026128567904822,-1.1259068127682454,g
1.2064975518946406,-1.4065158451019264,-0.4708176803444103,-0.05805547832423832,0.08891284034694617,0.7600938371349901,-0.11283102859288316,-0.0539933724300659,g
0.9757359220794136,-1.2925092833524086,-0.5511316185718305,-0.047121236444922374,0.5047570751081075,1.6789105678354272,0.6465572634258956,0.8704616252389444,g
0.5369975790755837,-1.2337961524590386,-0.7434630642282197,-0.26623693581552554,0.7908232062616933,2.394924833618172,1.164986177563885,1.5300417795904577,g
-0.021592714020657856,-1.2203470331377835,-0.9911089732294247,-0.6703518463607334,0.9038537658796029,2.889950480187955,1.4352031916582908,1.9415814324270653,g
-0.5091064020108151,-1.2223730544989377,-1.1987008014025478,-1.1126436875407912,0.8604210000709432,3.154243399384105,1.515776220718784,2.2073147327362466,g
-0.7532538116170147,-1.2030286907501941,-1.3065477124041625,-1.4637354617351206,0.72064922102167,3.1824419629212204,1.4902675172506237,2.418746864174543,g
-0.7007458506392101,-1.1234506879305703,-1.31864449853575,-1.6808387920209917,0.564197470469478,3.0057613020247915,1.4270471607615776,2.5985197733320886,g
-0.4408880487575761,-0.9593649386231885,-1.2711749502013174,-1.7854821559033955,0.4654445806494417,2.723563108302714,1.3563575803862136,2.7172953425392565,g
-0.1286399959481216,-0.7004288396893941,-1.1722272453854237,-1.7917050531644585,0.47616783957514136,2.485911086590721,1.2675934351525382,2.7486420082082876,g
0.13889768144317868,-0.32001483734195707,-0.9686524883613188,-1.6640812460794652,0.6181894562704773,2.4199147054198185,1.1240225640083823,2.6993045523711965,g
0.38108988496983215,0.22772197919319392,-0.5816781528708831,-1.3518314672259666,0.8783181857173028,2.548455517462722,0.8887756511064125,2.5909770272015713,g
0.6771747033646146,0.9473490502149261,0.00994531330176467,-0.8677516171037489,1.2044006092637103,2.766269718822865,0.54827473671427,2.422395204093843,g
1.0686652790333029,1.747745722822917,0.7180660477620884,-0.3280279849317916,1.5173260239325768,2.8997159267404173,0.1181878857652368,2.1571916373950453,g
1.526231000243229,2.481540075536052,1.3847845438536943,0.10342392823627419,1.7493954681855524,2.8179669816966744,-0.36482233838098865,1.760766416264318,g
1.99731530473046,3.051692076295598,1.8897349050906656,0.3341693323631908,1.8916280067631384,2.528161583547871,-0.8437773653647284,1.2695392671521482,g
2.4682113718802143,3.4764768403299096,2.2370825397474663,0.42664599558947075,2.0121525636396496,2.19020013317605,-1.2283824288197613,0.836542036678431,g
2.9795367260904455,3.858692630023861,2.5480823628821625,0.5649992468238842,2.218492107050829,2.0259812308708214,-1.4004183384133686,0.6895658278562949,g
3.5815999789266058,4.295429556507083,2.956485334466966,0.9177051337933179,2.5742878394476967,2.1660127686785096,-1.2696738092865387,0.9965699385913132,g
4.257434851825816,4.787891091701776,3.4795587598994295,1.499185188641486,3.0244990444573587,2.53872586123268,-0.8532089543291568,1.7295730517868697,g
4.87941557560185,5.205228436262021,3.969531731571542,2.1439339051192188,3.3984045130783613,2.900550239627017,-0.29987495688922583,2.6513930673549027,g
5.268726706989332,5.353974623370914,4.2038107300676035,2.620269800281149,3.5137992298450795,3.0038442374484275,0.18521308544335824,3.458185358308886,g
5.340753490205397,5.13846758086226,4.059166964489672,2.7950052743199025,3.3150716884973392,2.7797925594570194,0.46862645735978903,3.9714004815541655,g
5.205265690504513,4.679314256657273,3.6277338080987485,2.7177398302840814,2.9278491206548263,2.390360019761249,0.5670944922672285,4.226797755109336,g
5.103480763364931,4.253112538819096,3.1711965742180723,2.566223188705454,2.5745629387579383,2.1078795028234474,0.6143112800134753,4.39976200199897,g
5.224335980338692,4.091088466483757,2.95006865837712,2.512623334325181,2.420172907479313,2.118226785753964,0.7444465279021056,4.640454355564325,g
5.565122151017552,4.224236242860263,3.064680795293629,2.6205811393226215,2.4741592296643833,2.3932990709561137,0.9807822911768393,4.9493078010726945,g
5.946114766904418,4.495057887499774,3.412182098966934,2.830537322370299,2.608768754543248,2.7124087442118094,1.207303294032833,5.173250211260842,g
6.1451262709588255,4.680344193074477,3.7616765937883656,3.0111370988392396,2.6509140264265842,2.801690507208442,1.238127933460294,5.106880092178752,g
6.048243900384901,4.61311107756093,3.8860003303331725,3.0284852127554904,2.471950028216988,2.4915859449718107,0.9330734512102428,4.618162982252872,g
5.732777460218583,4.25842458251641,3.6823973641874717,2.807398466140005,2.0352362819199805,1.798234001200597,0.28321533230384255,3.720627582401074,g
5.435579304742492,3.7330744556316118,3.2259815427846794,2.375168505817971,1.3994227279189844,0.8952059855441142,-0.5791353466812001,2.5655957749919422,g
5.7715041507355265,2.9815166231996044,2.4125275182847403,1.507087358000098,0.048566134556721784,-0.6773143527902975,-2.0873705593302225,0.37894399139012025,g
6.418188955724548,3.0031859727868437,2.4160456927203757,1.4694048570074079,-0.4017555087615617,-1.1090077007979389,-2.412065521160351,-0.30217008440895,g
7.126364200284695,3.257124940245602,2.7141908878659633,1.8166048415159348,-0.6049955910508108,-1.3389994160360388,-2.450476811557067,-0.674916201938475,g
7.126364200284695,3.257124940245602,2.7141908878659633,1.8166048415159348,-0.6049955910508108,-1.3389994160360388,-2.4504768115570665,-0.6749162019384749,g
7.678455641090913,3.6233545606437167,3.149664827630244,2.417727269929039,-0.591774841506088,-1.4894599544713905,-2.377958428980004,-0.8887060950338613,g
7.962341512085439,3.9701850257680094,3.5166540714098984,3.0020985493052494,-0.46659785499542233,-1.6659531326204313,-2.407301172409487,-1.1400194445734726,g
8.001552437159884,4.2092590893346955,3.681182806726337,3.315267591127758,-0.3380342548441634,-1.8795855813764724,-2.6459416556680684,-1.5289797840323516,g
7.923369507304564,4.3478268735871435,3.664582766240117,3.2841016932017104,-0.23370978475155896,-2.0324387426186665,-3.0138330157944897,-1.969173676460613,g
7.859794615963925,4.47149382021418,3.610030193078612,3.0548312760603427,-0.08442955554684772,-1.9945805944787725,-3.301692034111496,-2.238237236657855,g
7.817834654269563,4.6283920196703825,3.6373482998642395,2.8578537566469757,0.1917077531601553,-1.7241352560113206,-3.3395949940852034,-2.1449934084000013,g
7.630481368481016,4.72550353406404,3.709988404862247,2.80884122727071,0.5830815883449905,-1.3293701784219667,-3.143816040617326,-1.6822639094207266,g
7.067841822898481,4.574043778333656,3.6442618291349227,2.818743577177847,0.964265367135256,-1.0106653525773313,-2.917052751380419,-1.0396338166433288,g
6.034337702320609,4.0534711254102955,3.2564863731434435,2.6836920167918925,1.1787082110825091,-0.9248881712665099,-2.897758696657727,-0.4680987442598239,g
4.682685315623948,3.223359221140215,2.5163513377219906,2.2664922228172775,1.1408754579454383,-1.0845236129563187,-3.1833284642310042,-0.11187218885912734,g
3.35578261597833,2.285734528391683,1.5855907037390424,1.62008684435717,0.8749660523242057,-1.371162057895949,-3.6716794846466363,0.05784053674142453,g
2.413141647624117,1.461575127309541,0.7290504812480275,0.9702488445703604,0.4811485029304613,-1.642773496871531,-4.159275200849089,0.16728548744301613,g
2.057030606330664,0.8860559051479967,0.17078505003055708,0.5822820192786942,0.07194805437342429,-1.8404347720877525,-4.500855913430778,0.30241142796096676,g
2.249388628509455,0.5676413116842568,-0.013107136355427151,0.6064258462952864,-0.27782030857085255,-2.011010981599457,-4.6955381544466945,0.42981213678837504,g
2.7677199220056417,0.4223882441366512,0.09838840773099465,1.0040580132916705,-0.5439197200861636,-2.239136869224882,-4.8422071377756195,0.4331945248603416,g
3.3730373757954495,0.3715638576243931,0.35958679138953664,1.596671944814224,-0.7317694332709397,-2.557250888983334,-5.02383707552429,0.2167481868526285,g
3.96415430278761,0.4237970191547708,0.6610674941279829,2.183832159598681,-0.852656445648899,-2.913055676081062,-5.22932989076278,-0.223510859320715,g
4.59004674593977,0.6502087556546897,0.9631366817067285,2.6325919206829016,-0.9209746480358735,-3.210126203663452,-5.366826885290957,-0.8117928659252802,g
5.3366718828053985,1.0866047369449805,1.266859669564452,2.899158072686542,-0.9503353320896645,-3.3619570658787707,-5.327483476597029,-1.4485806834937602,g
6.230784398719292,1.7042016441104866,1.5998950699498453,3.024106317960258,-0.9125591350313871,-3.2950475352329542,-5.022492749985258,-2.036999907947121,g
7.24411163577511,2.4923304809564732,2.0414913468715388,3.133429575784792,-0.6871170126382447,-2.911356158589677,-4.371225399545891,-2.4629021608246364,g
8.333930342564535,3.5178287586313517,2.7158350753859413,3.4069415844728326,-0.0861555877942706,-2.085787591254091,-3.2930651535415185,-2.5862952918207727,g
9.436144196573192,4.84404074491618,3.7008586671835255,3.9743433583197794,1.0167335769893153,-0.7437540166144208,-1.7552775177853088,-2.297339771911621,g
10.43603654565952,6.392454219341733,4.920186101011211,4.795846884119928,2.55265721911957,1.036123820274241,0.14868716301936571,-1.6074639054518323,g
11.191742642718122,7.919398359755301,6.140486839785582,5.648455685638628,4.253367094176214,3.0023253490848965,2.1762893258536935,-0.6829028937013598,g
11.609004375315136,9.142533096296997,7.102105236571293,6.2644974607821675,5.798202300592221,4.837855760668251,4.017782761595716,0.2357448094128225,g
11.691732245867097,9.892768880218787,7.677088688447728,6.521935098143518,6.991415029279322,6.316838054987113,5.432206400903585,0.9778064197539793,g
11.51532958773384,10.168302756660553,7.919058729185342,6.522597270036059,7.825155968755057,7.3784272572657965,6.3305347063720605,1.531777774112372,g
11.13460377057897,10.063764850490958,7.958968704790626,6.48103199308707,8.386210227216022,8.058229168500995,6.745713048238288,2.002317522648762,g
10.481320260130895,9.623368851964095,7.824486481850165,6.504623842369772,8.691144080712517,8.346100521434257,6.72865064760466,2.4723111653107663,g
9.333162573652228,8.723540312862252,7.332584611173942,6.443658449436102,8.589026147049072,8.103893324158792,6.265742526468755,2.8883216554843196,g
7.424673175303051,7.112684868469176,6.170074462401809,5.9496613706651145,7.821715934759142,7.12309499014903,5.285315484666549,3.065772210747401,g
4.665573317333435,4.627991838117107,4.13183169323303,4.720423431228176,6.207587356919636,5.281651300411734,3.742223147587228,2.809110215896219,g
1.2945089166057309,1.4114536194404819,1.3320120311638852,2.7462397661766587,3.803662795997109,2.673994681006203,1.7067076993201518,2.047968197311086,g
-2.1932545154327863,-2.097672420016637,-1.7999410493892198,0.35263904240935207,0.9097574348937334,-0.39090989652768365,-0.6173350482441273,0.8802307844153384,g
-5.305088396923071,-5.39992377042992,-4.744246460999906,-1.9980647531201143,-2.083991622741587,-3.519462320507055,-2.959215863948349,-0.504602472167005,g
-7.781086052864554,-8.17744763602629,-7.150540375758196,-3.9769563553437157,-4.871893321572858,-4.633148536760312,-5.080394987235472,-1.947041652710397,g
-9.62846257232155,-10.35114851190157,-8.941169571825846,-5.516862594553182,-7.303749737847705,-5.329884270065419,-6.839812046856517,-3.3839118097569054,g
-10.990185970881884,-11.981769325873788,-10.22888251706319,-6.736366084954538,-9.346580133394557,-7.25000039638122,-8.204414701721147,-4.82727203707295,g
-11.991563151401795,-13.155157912758309,-11.161759441218997,-7.7724776784161405,-11.016148366299536,-8.677412740664826,-9.226293824492291,-6.305188029819501,g
-12.66838992555734,-13.926494859357481,-11.81652693454326,-8.670201874501823,-12.335380250281071,-9.672355793802565,-10.006811073987945,-7.823733130023068,g
-12.993290206955072,-14.317974181486198,-12.185547983416466,-9.383918698486443,-13.316843406473865,-10.332419920544693,-10.648405783298784,-9.358700040333252,g
-12.660027023930663,-14.076859808611655,-11.957005266089283,-10.038294304501076,-14.198792523834499,-10.95512712177447,-11.619194960870313,-12.19847375007892,g
-12.272486756736594,-13.581753642753446,-11.428067329270803,-10.007967483778762,-14.020230559301552,-10.877495384688704,-11.80191751393989,-13.270696155783744,g
-12.002005304451355,-12.947554831753488,-10.77023192376395,-9.86250394201134,-13.419284910202133,-10.427652454698816,-11.65085380920038,-13.960837656418757,g
-12.002005304451355,-12.947554831753488,-10.770231923763951,-9.86250394201134,-13.419284910202133,-10.427652454698816,-11.65085380920038,-13.960837656418757,g
-12.009426737567958,-12.258559256938568,-10.141950301495198,-9.733981989493063,-12.501635406996316,-11.36198392065695,-11.165978032776664,-14.248548572458088,g
-12.393373326551176,-11.644012110589797,-9.709260205972145,-9.742196855483542,-11.477696879723705,-12.060514365580655,-10.47465385959851,-14.2161559992674,g
-13.185020825489772,-11.272578412899353,-9.598797190820104,-9.948717229573067,-10.580955670954522,-11.075347533113373,-9.772519191263697,-13.989864460567588,g
-14.327757292290759,-11.249346618077467,-9.833701756204192,-10.31745338377237,-9.938991512648805,-10.318734713103433,-9.204691931825321,-13.641173670211439,g
-15.677478123193229,-11.514044752746939,-10.304978464767723,-10.719619583622293,-9.497543250524245,-9.769722886353742,-8.768400787728083,-13.125671106239485,g
-17.060400176219765,-11.869115701592765,-10.8225512313542,-11.001043330524059,-9.069276057254715,-9.201460287486075,-8.310838775455293,-12.31374274679928,g
-18.349986271685097,-12.121712334637916,-11.219126502640918,-11.07083264098333,-8.474789272462496,-8.332084775867276,-7.63199824264769,-11.095852287663565,g
-19.495527057822677,-12.208235967702194,-11.4329311856548,-10.94252928476153,-7.669294932665233,-7.02916989932915,-6.62787558063056,-9.484481101271916,g
-20.495522944857637,-12.218985822039453,-11.521168344268556,-10.702312805058696,-6.770654329178683,-5.426565887457524,-5.377893897884843,-7.6375905238822765,g
-21.3581815889712,-12.338758714276636,-11.607671058144017,-10.443078236837602,-5.983062229758606,-3.86939783549479,-4.11393749686518,-5.79087815381638,g
-22.069579658376487,-12.74116166913982,-11.795578522391597,-10.21775868174206,-5.472830728942993,-2.721276667020809,-3.0865871665608653,-4.153200337832944,g
-22.56748528831332,-13.474102566889115,-12.089114788784888,-10.031639093649428,-5.273340866999863,-2.162725880534591,-2.4166382430584306,-2.837922655842275,g
-22.74202609724956,-14.410623927384805,-12.377431791196132,-9.86322211510933,-5.280239117076748,-2.113632787798358,-2.035867837842567,-1.8672490586431973,g
-22.487252992235508,-15.325012457681234,-12.505203099206273,-9.696713131369435,-5.343500047040209,-2.324583491002121,-1.7625547708896883,-1.2325653788093411,g
-21.770771446138202,-16.03685891898435,-12.383402590765915,-9.547171742794225,-5.388590601810586,-2.564382092848282,-1.4577051173915172,-0.957804165018398,g
-20.652228818234775,-16.485455605480322,-12.047396877013878,-9.456712456117234,-5.465863342822672,-2.763189073966167,-1.1383762992077067,-1.1106081070247948,g
-19.230387219179473,-16.679341839119203,-11.608642980717182,-9.454329522045025,-5.680433146724839,-3.0028930807768206,-0.9486267500057857,-1.7403045548612155,g
-17.56785618814667,-16.60267634020777,-11.137764676894246,-9.502069759008677,-6.056651764018277,-3.366653400429641,-1.004134400173101,-2.7812010454157132,g
-15.64911924097392,-16.17626296658632,-10.575540359589935,-9.46986152350469,-6.452353553514723,-3.782320429759653,-1.2437781847565414,-4.005543171501504,g
-13.394179686753162,-15.288861810986656,-9.750928610678454,-9.172125594636828,-6.605878581870341,-4.009203169850087,-1.4284258362326072,-5.09218144186894,g
-10.728268514049713,-13.868001202460709,-8.507893684931737,-8.463561218472297,-6.2974801017981665,-3.79472106083387,-1.3026004787170624,-5.788666164831616,g
-7.676726752932247,-11.957208028582878,-6.851055667863449,-7.341573695501312,-5.508394773104902,-3.0710298700080148,-0.7870839738449934,-6.053959156138413,g
-4.402724432539044,-9.740740983388871,-4.981121114285476,-5.970639419314425,-4.442887717768418,-2.019919535662184,-0.03943167882773686,-6.063974779396185,g
-1.1180309328799154,-7.456263722108458,-3.1638940853141855,-4.578958934655104,-3.3755540479279773,-0.9482980477689494,0.6651026241990766,-6.06098322942071,g
2.0789630962226884,-5.240656725259778,-1.5280439930222394,-3.284035514334428,-2.4379703854961376,-0.07901747946136668,1.1272582504312325,-6.153266126397135,g
5.2772108984720045,-3.06002103514522,0.02725251989058375,-1.9905773413028598,-1.5272598540828064,0.5734954280887925,1.335732821459074,-6.217145029061712,g
8.6462816014334,-0.8056435311073697,1.7219386105208911,-0.4646092983334961,-0.4193586360322031,1.1554212104985782,1.4255985252458785,-5.977773240906081,g
9.727737575908597,1.5479338656161095,3.675899801934956,1.462097443124701,1.0142081319136014,1.8144273403728302,1.5434954856102447,-5.2063352562752465,g
10.58623444221608,3.884995428918459,5.77182618300186,3.7219525687992565,2.675692488909351,2.5750130759921737,1.7439289364578723,-3.8801027575218954,g
11.088264600347527,6.0221622397989005,7.712306339555598,6.016088989347863,4.300283936799664,3.3479641486550085,1.9947445832884092,-2.1823799404869484,g
11.11495419020844,7.819436581929702,9.220800879605477,7.99445918174853,5.643887517736949,4.044161779071191,2.2645821388976146,-0.3501558965850774,g
10.644566464777698,9.246837222478536,10.229935558121559,9.477380254290788,6.643182452035509,4.67105761335567,2.593966762123217,1.4975288978733452,g
9.775564463960844,10.385034898810389,10.914895059203177,10.55319471008461,7.428049806913483,5.320322060185719,3.076844260825162,3.4063917603894027,g
8.652704257517062,11.359474026188659,11.546482919572693,11.48029786574474,8.189759405638553,6.071555477962255,3.7757826895491724,5.479144454949899,g
7.346139377033215,12.2389551226971,12.280751724236762,12.472826636034487,9.020429656149375,6.9157966931649,4.661718108103024,7.715989653776271,g
5.796510945349977,12.984584950561374,13.055977274363798,13.53744373611806,9.85174362278782,7.765745746509836,5.63481467529493,9.935407071194359,g
3.8860530803813313,13.508095228072074,13.672447371228168,14.478500356136744,10.524544601856764,8.521530260315302,6.590799671635788,11.82371619118726,g
4.082061800101785,13.776669694245673,13.970637165090627,15.050207910177255,10.909613695399795,9.11693474892163,7.457533624427687,13.06301147867319,g
4.246800135571618,13.848948491720801,13.955544491215832,15.131793277005496,10.979710560291712,9.516003799792902,8.176869856092845,13.453783454954527,g
4.380414195682462,13.8266075423255,13.787414632676226,14.80586904130385,10.802774792808934,9.691394622721527,8.673702869978683,12.97480202582734,g
4.4830500893259515,13.804972173087444,13.673436917722714,14.302629970249303,10.49349913152896,9.623726960461871,8.861745113603114,11.766329006708624,g
4.554853925393719,13.865782127968632,13.749789843611671,13.864035062576662,10.167144451592195,9.326007775829359,8.691715602742978,10.061808671630482,g
4.606549860368618,14.449264032998112,14.441516758491812,13.60096257045878,9.77918265440441,8.359736283752378,7.532051644456264,6.135504875283452,g
4.586734177059016,14.97117991502437,14.913983493624196,13.714934484288355,9.774467278827677,7.913681633005614,6.837245113024028,4.272781083385382,g
4.536670871740226,15.593418992258895,15.425478997655762,13.88658083104733,9.8536222439787,7.56777783434282,6.20096558992739,2.5676418720696756,g
4.536670871740226,15.593418992258895,15.425478997655762,13.88658083104733,9.853622243978698,7.56777783434282,6.200965589927389,2.567641872069675,g
4.456506053303879,16.26267576565244,15.974749733909528,14.042572080525456,9.923195047175671,7.275856367438079,5.56975550879632,0.9741056634728412,g
4.346385830641608,16.907284410261145,16.519035953072944,14.121058598581428,9.875419006194031,6.965299116443529,4.8095533406265645,-0.5664889613353667,g
4.206456312645047,17.450261136605366,16.960339930988614,14.08913419909353,9.653428138501054,6.62811688583313,3.838299634993736,-2.0190657529548215,g
4.0368636082058265,17.856950117873456,17.196793152106558,13.971048288719464,9.297575289868591,6.359916466338608,2.727818308272013,-3.2071881355900134,g
6.2667157811929615,18.150127169757873,17.1803592185634,13.84807034270238,8.921194668122379,6.304754397990349,1.687741488104061,-3.8790917959292144,g
8.166294893855525,18.355565417058223,16.926866160923666,13.814545675479422,8.628449554359255,6.548120143776162,0.9422858736750218,-3.8454451632427364,g
9.816911185895501,18.446668047817568,16.483952138632468,13.919733656829052,8.446603960002316,7.044410928733153,0.5951294393010574,-3.08567020312548,g
11.29617540454909,18.36188456216973,15.893037625669596,14.135743527997548,8.327933588490108,7.6358459374948335,0.5837323069423423,-1.746422977592045,g
12.664635941825651,18.061630821912242,15.167912012755114,14.369379409755291,8.207103557610619,8.149081907636942,0.755220504964569,-0.037765674982253694,g
13.96420999290753,17.54663195157682,14.298576595724947,14.511523141904803,8.057940767995005,8.496509355369565,1.0022416617238055,1.8934479658130126,g
15.214251590806214,16.834648849137714,13.282315864135347,14.498535390754629,7.907636974922136,8.701188862161423,1.3458832491291823,2.3462683732489773,g
16.413525400756722,15.944918090496273,12.160251648716649,14.344147938414995,7.802384704306547,8.820603413415114,1.8903894193709472,2.9824663824351663,g
17.548963380915687,14.895408610038185,11.017562486406941,14.111061649665668,7.748467041142376,8.831880821665676,2.682254866464867,5.430977801285473,g
18.59958108065644,13.688678667034656,9.935750045299224,13.84103282903323,7.673488220140408,8.586062498389122,3.595144248656573,7.757626704095374,g
17.109447166745902,12.309386795301567,8.942322087139365,13.50417573531143,7.446859379987707,7.888030900335255,4.346336404080002,9.591074122491897,g
15.791290024060697,10.768586597110126,8.007716402163336,13.008179482506455,6.950315707879038,6.64592958610668,4.639124983132616,10.579820652623123,g
14.582459821593034,9.151015011746292,7.082413235560426,12.249309125504062,6.137565309004017,4.963954964643772,4.321399645988286,10.526707603648298,g
13.470343273792897,7.588228215238473,6.131988918797674,11.162830393645688,5.033830505676439,3.096295134235034,3.4449053192768746,9.432824371079459,g
12.491132877346082,6.1780381375002875,5.155347934481311,9.756321176409497,3.6935484006373693,1.296866364345566,2.194396081269607,7.449885373259721,g
11.706431265492927,4.952630484839774,4.199138884631706,8.1284872008752,2.171945114108803,-0.318621675739414,0.7500562772999727,4.79291118120233,g
11.182620638528382,3.9262459369221636,3.3611986492365653,6.460801218812319,0.5316148625577723,-1.79779980428752,-0.8153892016096146,3.3316521273092485,g
10.962808626402172,3.1437684790535214,2.758433626226413,4.964291567309445,-1.1417512049232945,-3.25063218931142,-2.5338012283671483,1.56610724829712,g
11.041660157841045,2.6744092812614833,2.4701216220168054,3.8007795550318884,-2.7377459489796854,-4.698562649378124,-4.438777301076146,-0.41017477696503,g
11.377453160730433,2.586329149150207,2.5060354723907703,3.031851587810205,-4.129219236644532,-5.986627873767473,-6.446569374440448,-2.212504247593129,g
11.93034298140055,2.934169122014187,2.8224705164899375,2.6270684354017395,-5.18426127182167,-6.831283579458545,-8.323281139430836,-3.720727309599743,g
12.665301939022887,3.7258271943725516,3.35273437118121,2.5091597163246004,-5.792197400037162,-6.980700280139173,-9.77466846585871,-4.830074359391128,g
13.500847925225216,4.8588011916997065,4.014155233723712,2.592575703976624,-5.903745336253984,-6.378051048836634,-10.594527428090704,-5.462529342340179,g
14.268448874616027,6.102032294837789,4.69952312881373,2.7974799214845443,-5.557148645112741,-5.209500019180252,-10.759520453528072,-7.148073496664708,g
14.744175624135147,7.181027853888319,5.284065660259544,3.0523493188161153,-4.860437210496206,-3.797668037842329,-10.400395633586488,-7.713785819196817,g
14.729617334046296,7.90328546818255,5.654351537494709,3.3017778473861568,-3.934879823361949,-2.4119559112017006,-9.674954076818375,-7.168770878360377,g
14.115751777351557,8.215467205097227,5.738340846799016,3.5187583838075724,-2.859118547317032,-1.1307226847474472,-8.644677727382913,-5.620125389595158,g
12.9005777170841,8.16931813900081,5.517301683613344,3.70561640858039,-1.6560334296925194,0.14226173492201538,-7.256065184185755,-3.1894820374273714,g
11.171164311520787,7.8504092568092805,5.014171474838584,3.87061391353627,-0.3360131595740888,1.5187785208524567,-5.443223115313903,-1.6829764703403953,g
9.063963293548374,7.311889152130763,4.265236628585685,3.9906332699635896,1.0320359727411017,2.9498275367917346,-3.2648261304447344,0.15024029159681826,g
6.724972860396628,6.537013892520204,3.2979438727096584,3.9962256407439987,2.282338629900416,4.176303827748894,-0.9574210569721029,2.07903174891758,g
4.305027572264055,5.470130738261951,2.1427854762144705,3.8095924299273434,3.1953866583398343,4.854519994975222,1.143110405924675,3.8484140729864733,g
1.9902477071733333,4.1191925839999,0.87517183855663,3.417369864037603,3.607012639863431,4.769134061092496,2.7540103221870758,5.245132337447674,g
0.0058123827943264315,2.6362453550392067,-0.3618940256482312,2.9121585753868358,3.501482564539418,3.9793741531211753,3.76250156842963,7.723387124258119,g
-1.453135133621664,1.2748871014816123,-1.3964151135212994,2.450738227084687,3.0121873283151417,2.795860246822463,4.234443351119038,9.095343998457741,g
-2.3110679694497884,0.2576024419480115,-2.1036705386313708,2.152000717600721,2.3334866968949055,1.610347763797762,4.32717619638739,9.386431592375724,g
-2.6257815731311314,-0.3162792740796245,-2.453033878031168,2.0187696986848622,1.6173360060143303,0.6990595265757289,4.180646580202756,8.726911470973384,g
-2.5123553362052693,-0.46495552484228364,-2.4925345095956244,1.949443135692914,0.9216653539998422,0.12009013230702754,3.8566762141060225,7.262759850014318,g
-1.296134350822549,0.1051642330598658,-1.94012923224096,1.6120999191000542,-0.5303560716382187,-0.6290538320591141,2.6036839027636214,2.458211547017439,g
-0.22474852494488556,0.5680505984039134,-1.4442363803382308,1.3728302201635256,-1.352919916613668,-1.1335419825892479,1.6181594689484449,-0.5445041242647937,g
1.1533430554335122,1.0623481135612942,-0.8028767529407794,1.2399385536845726,-2.1770107556062723,-1.7546735104938596,0.4336200874453449,-3.6425534009761456,g
1.1533430554335122,1.0623481135612942,-0.8028767529407794,1.2399385536845726,-2.1770107556062723,-1.7546735104938596,0.4336200874453448,-3.6425534009761464,g
2.7909222079988085,1.6437293981727756,0.01491084263622291,1.3282185009960068,-2.85870410599449,-2.324240213012371,-0.8259103318418411,-6.5926463965801645,g
4.568577714107085,2.406292781799972,1.0230206335477514,1.6800822648195965,-3.2398926349547494,-2.6109376554802197,-1.9854751677996365,-7.507547898899119,g
6.3120472782708354,3.388568859930667,2.1824821230952125,2.2590190663756125,-3.2299940387038277,-2.4626550694765723,-2.887198973231482,-7.972706704570081,g
7.851629077633421,4.526386187360939,3.3923336133166315,2.9780247929017127,-2.855303883279029,-1.9120146469941723,-3.459398650845653,-9.589078414517566,g
9.074180901362883,5.66774817540233,4.511370855906786,3.730954476883632,-2.24307750432023,-1.159647079717232,-3.7297048856260475,-10.611582242660877,g
9.93265299481477,6.632973195449225,5.404217693406637,4.415333118441307,-1.542391094924266,-0.428804057229605,-3.762100855139247,-10.937211715484626,g
10.42669421830935,7.308373013390872,5.997360225232944,4.957377430712709,-0.8245761486421767,0.20867477227989437,-3.5657647876762617,-10.423824382350029,g
10.572793442123922,7.7213008048674325,6.3092627590068435,5.337378751045231,-0.03713663288762059,0.8942126683480041,-3.0568241387701383,-8.945939585577872,g
10.361714211995292,8.005018143179571,6.415644594351882,5.587258671507752,0.9364016936940456,1.8680891451320067,-2.1132096008570094,-6.478364554557454,g
9.724849008061216,8.247907801422688,6.3635990661029975,5.743573015295783,2.1451389060685138,3.256813567585362,-0.6823022031188238,-3.1528439439423677,g
8.566170005348159,8.369431117292256,6.11088734255326,5.788728138131285,3.4788817134991374,4.926789271363807,1.1439344049100653,-1.1731686446891167,g
6.869352719532651,8.16224745642272,5.554951348060362,5.64054162838171,4.7013938551591234,6.522165134617525,3.1437931214647383,-0.7666326124022329,g
4.79305208530639,7.46425753672289,4.634196037820461,5.2162123792116795,5.586042335602451,7.66490605008089,5.059110397299059,-0.36982514094605373,g
2.658106377920651,6.301302066774596,3.422871231178535,4.530740685146968,6.049978245897693,8.17597590809398,6.703075755721872,1.5358586133278285,g
0.8306722163849329,4.900640125410829,2.1497217565357496,3.748680702074529,6.193588328890733,8.163200732268972,8.013624053685781,4.62847251058235,g
-0.4149412962952838,3.589915445509291,1.117110259630695,3.1259231918303865,6.220424379618883,7.915799654503462,9.022142413532384,7.044619093326533,g
-0.9849118414454414,2.638592777742811,0.5512714852737306,2.8551705527489544,6.286239974195121,7.68234317940703,9.766567301548523,8.660484790250601,g
-0.978882181549302,2.1166960191799733,0.4715798667338408,2.920683432887497,6.378105061255097,7.495016297733241,10.220205348384136,9.332569379521823,g
-0.6165382024494694,1.8746376094863044,0.6845177407676827,3.0902111183205134,6.32093063187856,7.169830199529545,10.295335501411458,8.937990859752697,g
-0.10420365991660667,1.6890286673279171,0.9274797542780263,3.074803491569207,5.919152990173063,6.476173914897446,9.916629141367356,7.459766076291809,g
0.4678139372697025,1.4571471104530762,1.0527095921594645,2.739059778486572,5.120596679518743,5.33711509030522,9.098824275391314,6.979576574201728,g
1.1115052668365941,1.2517546873314873,1.0954383713152132,2.1882534396631783,4.060032193359585,3.9030418669867517,7.960524351018746,5.9917195544749635,g
1.8340061771344949,1.1944454888546705,1.176764912928141,1.6586562357806964,2.945931929709201,2.445956877616002,6.659078490041584,4.6603828188681025,g
2.549443466929702,1.2964120476152918,1.3417329477205988,1.3044206533588105,1.8927260197619584,1.1620709924067896,5.293446962499975,3.1297532613455834,g
3.0880567528811556,1.420577356260476,1.4805995174977828,1.0619473719040535,0.8428765879815174,0.042967228005634794,3.8513701380288055,-0.07083674771162762,g
3.2864200562567882,1.37698650697626,1.4036459389988638,0.7115413518555991,-0.3531520702860235,-1.0714857112659382,2.2546303453845082,-3.279557349869569,g
3.0948434498586126,1.0653629769156603,1.015085472983039,0.0940159250549784,-1.7550706598066768,-2.2895948540096924,0.48270607912901,-4.780452711067741,g
2.6347470982324794,0.5712626345423504,0.4424348930225156,-0.7001715723949733,-3.1951415696899623,-3.4848029026376772,-1.3248755790051465,-6.079270963552701,g
2.1466360669461793,0.13899858226002665,-0.010416456516130702,-1.3465454258747702,-4.318967123787909,-4.309763763165236,-2.8911945102807084,-7.031136928867992,g
1.8272841226083476,0.003972492584245213,-0.08103072692270881,-1.5147065118434435,-4.803268925893497,-4.422339929994086,-3.9503991905999194,-8.769577074161697,g
1.667387298734131,0.19833146120748218,0.2368351902150247,-1.1222506079652523,-4.582310474900382,-3.744910177688122,-4.402669150946108,-9.312418796415567,g
1.4408386908622326,0.512779001870717,0.6781022069447833,-0.397610071246297,-3.884936277706727,-2.5399461097585823,-4.345742000382176,-8.678633991111727,g
0.8701060256388417,0.6621828944223643,0.9091145119914248,0.29491414768225005,-3.04837608449744,-1.2406813338944187,-3.965028106996583,-7.100593949711313,g
-0.1775243399596364,0.4907516721490152,0.7635869836955408,0.710105871310202,-2.277015630087368,-0.17789638600736044,-3.384435690723714,-4.841176138070898,g
-1.6229476299015295,0.029528433376142037,0.3131010134305958,0.8488681330075731,-1.5503767296044013,0.5842784243147185,-2.600819664121428,-2.0550450494480748,g
-3.2592569336102373,-0.6000339685194833,-0.25604142994554646,0.8766544259907156,-0.7344387809347558,1.193006232210665,-1.5462113966378428,1.2022006845112359,g
-4.892305498539365,-1.3056076010682405,-0.8248611760984392,0.9255427093238499,0.22324891003856093,1.7990481163191863,-0.21939431327645548,3.0788225630243913,g
-6.439733858904672,-2.0752862705708193,-1.4295647701601162,0.9522366938040264,1.1837804914675907,2.3759653889248704,1.2239701812124326,4.980199402509415,g
-7.936470230249353,-2.9583671145179764,-2.199351833328523,0.7663026302161147,1.8772379176209568,2.71157928651959,2.502436997554157,6.716732178509081,g
-9.440263826171678,-3.9951329759528464,-3.203694972719446,0.20003479635751545,2.0829769321102485,2.570539698442537,3.3476148296078163,9.419630092723335,g
-10.896984405419593,-5.126775777156789,-4.333654881892439,-0.7264183022345752,1.7878263638841143,1.889482011547343,3.6518161372396882,11.112211003513684,g
-12.082266714119921,-6.160568851215461,-5.318636209442229,-1.7872431312208725,1.1957575659463393,0.8480205713725562,3.516711916960122,11.798197302917663,g
-12.510812412136026,-7.018392563024264,-5.84972234784694,-3.29457611803187,0.1137778693361371,-1.0983989385029809,2.8017582006206996,10.917729056645374,g
-11.54248749559331,-6.652148523065877,-5.302790261101244,-3.62560062544148,-0.22731990486822692,-1.6781888629233066,2.4571875440975703,9.631557539991324,g
-9.996112424521378,-5.852022590556391,-4.4126420872513155,-3.863864138979806,-0.5804825360021714,-2.109667282326337,2.0175309081824966,7.772065328804426,g
-9.996112424521378,-5.852022590556391,-4.4126420872513155,-3.8638641389798067,-0.5804825360021714,-2.109667282326337,2.017530908182496,7.772065328804426,g
-8.195938365657215,-4.7846355575765624,-3.3849785660747416,-4.165671236646746,-1.0791553835402499,-2.595201281745258,1.316081130840842,5.303850853165166,g
-6.447970068679228,-3.6281639386521456,-2.3682537709350866,-4.559089993677718,-1.7501133756032297,-3.2421554911331634,0.2844180897414085,2.3212879369261725,g
-4.91279773642662,-2.50345263945715,-1.4087683108510345,-4.926631846747318,-2.4799801931579264,-3.972231031179843,-0.9627830628111598,-0.9110314862396404,g
-3.551041965460245,-1.4064381009061822,-0.44858188400334276,-5.074011534089404,-3.0530396360227305,-4.551284214824187,-2.16556137294896,-2.3475874187672585,g
-2.207039011703473,-0.22896367798407669,0.6138074337556221,-4.845993003157777,-3.2489376620053236,-4.715008690103865,-3.056422298843298,-5.0522016652411414,g
-0.791369622196752,1.111868483024896,1.8181281108959684,-4.22824033610704,-2.9567254709464974,-4.3128894909520685,-3.505167092001676,-7.169658286044799,g
0.5862481834372689,2.5517229425640098,3.068627309748679,-3.3673218042016693,-2.23285297700311,-3.3851783765008348,-3.571891819467686,-8.67114321554695,g
1.6429918274123003,3.880122893241693,4.154706503507697,-2.487258996467195,-1.2614073681901294,-2.1321061384254136,-3.4359979558606084,-9.570746546264315,g
2.071836318636168,4.845913793348511,4.849244558500468,-1.7616390304484804,-0.249308276230159,-0.8047283850559414,-3.258189903256111,-9.82849463578833,g
1.7010800616965613,5.275334136121042,5.018143863502118,-1.2333467269498726,0.6718965882927955,0.4088155706372927,-3.0740923896930603,-9.332605592220796,g
0.5874982486377359,5.153844651378388,4.687540839301857,-0.8260412815856881,1.4891686404115458,1.4397246301454008,-2.7852550977368837,-7.96877027991034,g
-0.9919543162691282,4.649113473177138,4.038343447715651,-0.4231138484462047,2.284679773667325,2.3228211755626935,-2.240279307168218,-5.716142614243243,g
-2.6660452017313836,4.0318872198519715,3.315494815668431,0.039495609460186466,3.1575021024336363,3.1332766332248703,-1.342894132424717,-2.701141195853876,g
-4.161940618771228,3.5067223220052157,2.690465417930505,0.5189943435691415,4.130510040839258,3.9147812675708913,-0.11792950400501559,-0.8698666415607491,g
-5.427656119712212,3.0861689099508545,2.1759468447563157,0.888402492632425,5.1090973118277745,4.637082833378155,1.2970480737845402,1.1414604436085753,g
-6.57995523435028,2.636838737883166,1.6687990755217323,1.0310315370464997,5.931252716562905,5.208273137913673,2.719066130294398,2.9050475670762346,g
-7.731430984913898,2.0485278751538027,1.08304557556115,0.9378988937823959,6.469945847221138,5.536704210360492,4.001489274630399,4.277646018827455,g
-8.85421614193727,1.3525057281396005,0.4519321720282135,0.7233547379014402,6.701866399576076,5.5993592944228965,5.084288831367311,5.191409856216842,g
-9.778611492189576,0.6968972223428046,-0.08381331960244416,0.5408863823108595,6.694195392283324,5.461139883813253,5.987057970918949,7.088641767908195,g
-10.305262661911794,0.23478324624112928,-0.3834585589232127,0.46515627629492773,6.532398838685651,5.223356510802963,6.75101823611964,8.21260545077296,g
-10.351743813453156,0.015323373468190793,-0.42857513329572094,0.42619178189552437,6.244799232584709,4.937628788652337,7.369031259145444,8.53140705679756,g
-10.044647406973187,-0.06828584543515395,-0.3750181325134966,0.23833302903151687,5.7709740542206,4.555142873888788,7.75631602132893,8.058557880887523,g
-9.677136503239078,-0.23082990179837853,-0.48438277209221087,-0.290478949175098,4.998401248432654,3.959071308889824,7.78979213208532,6.85539950630835,g
-9.53016973846149,-0.6431445353615116,-0.9618722505758273,-1.2308638638765954,3.8525184502456304,3.0622982142672783,7.389555317762984,5.02878660239009,g
-9.6882459277093,-1.2842216445464243,-1.8145561848287215,-2.470748412353686,2.3764406333949673,1.894806611707893,6.576977544753864,4.410334998386616,g
-10.010590976279564,-1.9452701118965703,-2.8450597943083187,-3.7695190154300184,0.7334619740444992,0.6088220183838824,5.462298406220954,3.5906395036492866,g
-10.269456542851561,-2.387626162279698,-3.7785415745377633,-4.884188176154024,-0.8652517819722002,-0.6006832380662964,4.178601060087707,2.6339399226991156,g
-10.307030873863912,-2.4900357347360194,-4.404666073702692,-5.663343275155642,-2.2365241857381783,-1.589332081560503,2.82608410309132,1.6131538098101443,g
-10.083896576552364,-2.25954637208642,-4.630665263971262,-6.048996240941533,-3.249050798067838,-2.2947806401098374,1.4723606057417666,-0.8310092473714512,g
-9.635221218925096,-1.7541191886071474,-4.449564748059322,-6.024534202856609,-3.8108690350522734,-2.6967460538210464,0.1925701092746519,-2.8102763854520347,g
-9.018588518682431,-1.0277058206710916,-3.89107088217222,-5.583609196559267,-3.865465692947828,-2.7639977146334926,-0.9060561280526933,-4.164726705051518,g
-8.289989539372586,-0.12259377414579573,-2.9963843344949614,-4.743366934928234,-3.4066845594901807,-2.4505636396558637,-1.70910517708196,-4.830956064348156,g
-7.498132563626109,0.9259094154940122,-1.813553486249106,-3.5658248532867765,-2.4873471870650214,-1.7452183035380997,-2.1472622316129493,-4.843957118709313,g
-6.689885425893406,2.0782020766984113,-0.3997406734884999,-2.1502253888174936,-1.2023740320953182,-0.7181915411663734,-2.2204999815377926,-4.273070952524222,g
-5.918563906350444,3.267416371281,1.1757185739072877,-0.6009265274654771,0.34756190542312987,0.49324537504392907,-1.9621988993210824,-3.1399721705394525,g
-5.236794507085672,4.395889045532486,2.8279173533690782,0.9927720599840661,2.088094102273201,1.7586696994066249,-1.3722971658678529,-1.3974302885631154,g
-4.680530658432315,5.369791254666374,4.447404067017972,2.536642472199132,3.970742681160459,3.0230149326323033,-0.38772624337020917,0.9967649114971096,g
-4.27762917049194,6.129050838396917,5.886692298867276,3.8867731659266793,5.931289861638138,4.3058140252409425,1.0697311934892095,2.033674997506571,g
-4.075250853800642,6.636927704145437,6.969035509396278,4.8385587661510545,7.8426261274206865,5.634754647598504,3.0020218836930033,3.0762714358871617,g
-4.126009895230116,6.869934339916597,7.550180812497774,5.198271133639471,9.521541138854223,6.980652839723919,3.5391514447306305,3.9926663391495643,g
-4.415179839044157,6.850560348443014,7.608664830677187,4.908560436132315,10.804425048655563,8.254307989843696,4.086701129548517,4.662531454154515,g
-4.812542171036045,6.67275643451009,7.280647406130217,4.121162268355017,11.629462865469199,9.359503336129318,4.562010318519896,5.02156210964321,g
-5.248712988015642,6.222435309528233,6.2938848548808135,2.1843898680964053,12.140337558742056,10.881189894409497,6.485891152574062,7.45513653645327,g
-5.168741161087222,5.944258789542603,5.851911644747202,1.359207337346814,11.947995108930147,11.24198637254139,7.592293572504163,7.715906359235376,g
-4.971025655141037,5.553320458162963,5.410152593572141,0.5404407635172828,11.422151273071918,11.236297995100877,8.116019508640013,7.243840771938504,g
-4.971025655141037,5.553320458162963,5.410152593572141,0.5404407635172828,11.422151273071918,11.236297995100879,8.116019508640013,7.243840771938504,g
-4.715531236034064,5.050703657557428,4.916440980041966,-0.4202351461368825,10.484140092743779,10.761065560821375,7.944971745215222,5.957762887802855,g
-4.3810754082622205,4.512198357520555,4.389992650842972,-1.5410491950019884,9.118178421125425,9.793091010090688,7.051204138741255,5.835024909739264,g
-3.870644999748439,4.055905356668079,3.932678185587129,-2.6516544329591505,7.445272192115428,8.463748244746338,5.5656632128127175,5.482144237534714,g
-3.079920689248662,3.7975122580428122,3.679496608856124,-3.480524450827275,5.714895391492978,7.034837770208375,5.501550086383393,4.99669113611915,g
-1.9960662397735205,3.795876010422687,3.7237741701991163,-3.8173956787621512,4.205388590862323,5.777655864159091,5.5272511994862965,4.470123215076909,g
-0.7502295252758122,4.01704077783364,4.070125414496637,-3.628388652878712,3.100694316191768,4.846139728943572,5.69804954644445,3.961919774178863,g
0.44057343060922627,4.3686784984260605,4.649426029237967,-3.043983065523191,2.43838858938433,4.243332098547018,5.97442516835235,2.016343318874165,g
1.4034380610961303,4.78689045354483,5.375123517051753,-2.243958978282703,2.16187959242042,3.897560692796405,4.870284815166823,0.46851403121976726,g
2.095715803738881,5.281112841739005,6.18797797744466,-1.3372433495384404,2.220835588544042,3.77241809666615,4.00496589186466,-0.6395837876617781,g
2.588639974794804,5.8956175703605265,7.066243488271103,-0.31677345726501416,2.63737553037134,3.91595841493215,3.430086145045981,-1.2022508552675095,g
-12.355945301199588,0.8127083125634194,-0.979569080921971,2.487012275624051,6.711173520863798,6.271055103400011,4.503733178207179,0.3583530233246336,g
-13.868275462502748,0.8713660739578415,-0.5609526587068284,3.685086659259084,9.225152766358852,8.626476730543185,6.4968524626012965,0.8271545088222354,g
-15.157173849644305,0.5512417217610053,-0.41180767404515584,4.483867713116416,10.983192496005483,9.928079389946086,7.861266761696494,2.831483739495919,g
-16.04698750329605,0.000885940861282597,-0.44482893881824437,4.989954862045416,11.969437887084718,10.2643650479495,8.555120685447902,5.59327832837726,g
-16.526174184323217,-0.7178527780800401,-0.6329073584353665,5.258101866912692,12.178859186090355,9.80887490072419,8.551212867963827,7.1012281550154155,g
-16.744440278987717,-1.6669251263816975,-1.0438049499175368,5.220074469338568,11.563621372471644,8.690437191319436,7.825256053047275,7.343297122044186,g
-16.87862856462899,-2.930216655522794,-1.7654317444467078,4.754236299471065,10.08877401711008,6.974537937265465,6.417750036209017,6.349711718643702,g
-16.99525897885743,-4.493097362249226,-2.8020984663190673,3.8199095092662283,7.829212578404414,4.735047753651516,4.495993654849421,6.4519570891390385,g
-17.019896074331182,-6.211802818857928,-4.041407223803129,2.52239155759993,5.001952379581908,2.1174062148676276,3.829221205374411,6.112960989898985,g
-16.81581354326376,-7.869011805262849,-5.315198748160755,1.0481194075312477,1.898239057897862,-0.6715441895277495,1.667586466178617,5.25705204933422,g
-16.305312316814906,-9.262428012097184,-6.498627944718045,-0.46959716131100604,-1.228663460759112,-3.4226359261047548,-0.35978871050184014,3.7687291236148868,g
-14.774525797246008,-10.957478112833899,-8.586923790594758,-3.7611518197315292,-7.05821241699266,-8.16433648562106,-4.060917346868196,2.8990036426258565,g
-14.18866869880016,-11.359791846226987,-9.599037873875,-5.7221604566373685,-9.645251717689225,-9.890425999113575,-5.7287260648204015,0.8866427161793038,g
-13.923867335629055,-11.53990829907514,-10.570823455045305,-7.850552176629563,-11.860300380994172,-11.026420202198503,-7.1111566031460445,-0.7692317685408362,g
-13.923867335629055,-11.53990829907514,-10.570823455045305,-7.850552176629563,-11.860300380994172,-11.026420202198503,-7.1111566031460445,-0.7692317685408362,g
-13.95730866226663,-11.470346739263281,-11.38096853990194,-9.921111810753118,-13.492570273123068,-11.492737741911133,-8.026271804194682,-2.0694021973585786,g
-14.17703799395268,-11.098182925408285,-11.88903086407285,-11.655116010843972,-14.325414364982294,-11.267431073280612,-8.359377082907036,-2.987676983439843,g
-14.462820793909813,-10.403191859610757,-12.003060265891687,-12.843900163906891,-14.215124402814208,-10.37361720494502,-8.103170748559025,-4.859846576758218,g
-14.730871004063976,-9.407656166143203,-11.703006279807223,-13.404108575955927,-13.130234815914317,-8.856472947691305,-7.320514397592572,-5.320553428293687,g
-14.952770676487622,-8.17257719927078,-11.029171607074879,-13.347526926191705,-11.151864935745888,-6.786115404731464,-6.0831219847492,-4.290603079865564,g
-15.157787145332478,-6.809997074136637,-10.056233075359216,-12.709485936812078,-8.449153468495561,-4.284578718125216,-4.4452194179879285,-1.7737658165291967,g
-15.391884757416051,-5.465455615131242,-8.8557373881822,-11.493158467853894,-5.232208903355803,-1.5353773124311088,-2.4622645813333683,-1.3982247705695126,g
-15.642861066268782,-4.244642162360208,-7.462352682163171,-9.673492047258724,-1.7001254003696655,1.2511197609013176,-0.22350551946858294,-0.9315329146320179,g
-15.809718742465838,-3.16049574405789,-5.882505525277178,-7.271733184123955,1.9724712635977213,3.8902722376550023,2.1313642514483244,-0.4082272693494076,g
-15.765804291743388,-2.17689100326684,-4.153853646613051,-4.45275836091425,5.592983507647587,6.243513823753916,4.418052671806962,0.1353246336611688,g
-15.45726117338856,-1.3009442435583822,-2.4015941713408155,-1.5542269832663043,8.901008233015794,8.191876349491256,6.430694552870794,0.6609247517981055,g
-14.942747917941933,-0.6189990862214069,-0.8320467615131388,1.0056492122493137,11.578096444497433,9.601483095991341,7.977642838043454,1.1285445314753408,g
-14.355460626172555,-0.2574726428217403,0.3338562704254988,2.8922735784828926,13.326807503838959,10.331320568066314,8.922861972390566,2.8810086897435787,g
-13.83331521973191,-0.3257893584596611,0.9383194166226281,3.9769874555948173,13.967342720543886,10.291635499781457,9.21743391330511,5.206534531773116,g
-13.453758646448268,-0.8689946906072347,0.9373474513274699,4.340173461649896,13.49376153757693,9.5067434417704,8.904099340259638,6.1548577878079795,g
-13.195451454848927,-1.8285090770526318,0.4073640595466431,4.166511670386259,12.060753012038472,8.120123520353303,8.08887853390091,5.836873796495618,g
-12.959924682298503,-3.0464555916824003,-0.5010427452738088,3.60700999650687,9.905535346493954,6.322927644801408,6.892688084320549,6.1340380726949535,g
-12.652748753732055,-4.342220917235818,-1.6417930995756325,2.6963124837478736,7.250250485219588,4.258883273850506,5.412077284253691,5.81721230494789,g
