Fz,C3,Cz,C4,Pz,Po7,Oz,Po8,Inst
6.4010145121599065,1.2971138445017405,5.622353061455099,7.347153097012637,9.776074792089194,5.920569579271021,0.5325915090940478,-0.028064463048686185,g
6.4010145121599065,1.2971138445017405,5.622353061455099,7.347153097012637,9.776074792089194,5.920569579271021,0.5325915090940478,-0.028064463048686185,g
6.4010145121599065,1.2971138445017405,5.622353061455099,7.347153097012637,9.776074792089194,5.920569579271021,0.5325915090940478,-0.028064463048686185,g
6.4010145121599065,1.2971138445017405,5.622353061455099,7.347153097012638,9.776074792089194,5.920569579271021,0.5325915090940478,-0.028064463048686494,g
6.401014512159906,1.2971138445017403,5.622353061455097,7.347153097012637,9.776074792089194,5.920569579271021,0.5325915090940481,-0.028064463048686226,g
6.4010145121599065,1.2971138445017405,5.622353061455099,7.347153097012637,9.776074792089194,5.92056957927102,0.5325915090940478,-0.02806446304868624,g
6.664995767305923,1.7868144274162177,5.5788264838264015,9.133449618843436,10.321654055603732,6.0350487083651325,-0.06287499766653563,-0.6321998522231295,g
4.670375040729134,2.047224581250755,6.095136677322346,9.324623078461274,10.110888904860364,6.143603582591998,-0.362259793792707,-0.9354452584929568,g
4.532336127197532,2.268598711645919,5.509296692257941,8.421300083819558,9.286759061428077,6.01620704122135,-0.5849305659641371,-1.1214990538622338,g
6.26653579826899,2.45247515591097,6.512700382372259,9.030495195220553,8.13412392234662,5.478357252355073,-0.9545260579977766,-1.3719734538042476,g
7.882731489395711,2.6003922513551663,7.488818200221594,9.716852642325163,6.907271713525114,4.551022235102157,-1.5364320437427013,-1.7444864323029967,g
9.493320616169106,2.713888335287767,8.51349643846926,8.986932363206833,5.688410455387402,3.3924308957041527,-2.2610049101924288,-2.2105226833102494,g
11.046288714386922,2.794501745018032,9.504413917908552,8.26802788571159,4.381506401986318,2.124553449788356,-3.072530548463218,-2.782798705427046,g
12.421925874551716,2.8437708178552192,10.321758056597504,9.004855083920203,2.851384867174729,0.762021512804212,-3.9948289637473366,-3.5413744993830134,g
13.535948689953306,2.8632338911085893,10.900355739227578,9.516326798254276,1.1081379274776935,-0.6761741793194421,-5.027354780059335,-4.499179617935513,g
14.40335113349327,2.8544293020874005,11.317071721906556,9.831684584174681,-0.613581723362197,-2.035700686216276,-6.025137859680372,-5.476166248383216,g
15.144812465817182,2.818895388100912,11.746344601650282,8.548743382421977,-1.965380174244504,-3.0663506335954773,-6.744041009502905,-6.16615781069379,g
15.90728058897704,2.7581704864583827,10.678767095781657,7.735306203079,-2.714421831733641,-3.6025792715103426,-7.018837638117651,-6.355259244383165,g
16.731618938867,2.6737929344690725,10.111851003785757,7.345076498974862,-2.9010188473799277,-3.6897954974161715,-6.884219664906664,-6.079435635821068,g
15.487620490846854,4.288092281538607,9.710709875039992,7.0780983049002115,-2.781291412511529,-3.5370831060484553,-6.528397803395391,-5.582644645760446,g
14.043325284454895,5.695544049022077,9.130995269529492,6.632708225611717,-2.599545769240158,-3.3541618469677403,-6.136234318401243,-5.123887976928955,g
12.244974031044178,6.918042965888711,8.287943937082305,5.946407412714432,-2.389488918795892,-3.208426591545348,-5.74649183748336,-4.7844727986515005,g
10.231977638078822,8.09635472173007,7.383088306260362,5.213799888712381,-1.9774522049560954,-3.0047044094935362,-5.224728980190302,-4.418839930525711,g
8.260859308779155,9.347551985039598,6.693111310484852,4.693088225159866,-1.18214081584125,-2.6108620752229195,-4.394456780765202,-3.809501251044112,g
6.510206235181163,10.661808477495944,6.325333835574578,4.491840726347302,-0.03626133916325465,-2.039304818775664,-3.250883624161233,-2.9271384595660708,g
4.994652018458468,11.946628985406988,6.13554673441419,4.4951901399459215,1.1639276201479192,-1.5105448196434095,-2.0618164602162627,-2.056410093205231,g
3.5862846441142215,13.14078840832903,5.853315634358984,4.4622408050405,2.0324027744503907,-1.3056726345606182,-1.2200099022973578,-1.6258474530293157,g
2.132007957300913,14.278693097867006,5.3088199463458405,4.209036302232336,2.349676078654962,-1.5370148688765801,-0.9619488530270125,-1.8748122463691277,g
0.617024686542549,15.476683319480276,4.5774340875249155,3.7414623187282343,2.178689280338263,-2.0756185603593766,-1.2257699606802774,-2.680919973931367,g
-0.7845056478208463,15.137498971212086,3.903529059662025,3.2164252929154293,1.7317933133318402,-2.7106810454188652,-1.7736254521594468,-3.709554322111033,g
-1.8732832888242197,15.182225021696874,3.4491542630025442,2.746701974838077,1.1068020282548856,-3.369755512290488,-2.4318746835935454,-4.718962317678585,g
-2.6432066183758103,15.415750717844034,3.0986454202156346,2.237693267811033,0.1384211083797781,-4.187886030278876,-3.2237262232602726,-5.734316942056295,g
-3.2934597740037583,15.405959331269177,2.5192780872489706,1.4350745722527751,-1.4920533020919262,-5.383906950757115,-4.312376676592768,-6.9709530474416495,g
-4.028038917031736,14.825205190180679,1.4264835568274663,0.13799952906744598,-2.1695292411125155,-7.0618657720004325,-5.828066612190308,-8.606522723681888,g
-4.89377137042109,13.692045262769005,-0.19622765059955843,-1.6406784638035579,-3.0119345643622104,-7.358417387957305,-6.332398409817804,-8.912492837713819,g
-5.810912426224329,12.272537436787315,-2.104350724552102,-3.6998824121825686,-3.8112881561728775,-7.559247434617833,-6.7669677400859625,-9.069038163638966,g
-6.694880062855667,10.807123200926592,-3.9855508560827837,-5.7917448864401155,-4.360928765191245,-7.486428150880608,-6.885676331036512,-8.844701835641569,g
-7.530112292645422,9.348970465942648,-5.66709569395287,-7.743215521925121,-4.583976215646957,-7.098815339536559,-6.586533882629359,-8.179246345879118,g
-8.387179178034994,7.776977841799477,-7.1947563991761045,-9.49776703425212,-4.552642393126396,-7.859776253180877,-5.962797269354235,-7.230839967508264,g
-9.396911945679644,5.903103427695754,-8.738493432864233,-11.077959993176114,-4.375047638591604,-8.369458002388194,-6.430193147331849,-6.230841248984567,g
-10.647816605993105,3.640696949149517,-10.39000652558565,-12.488430559789418,-4.046067639036103,-8.691065938140936,-6.640461874101537,-5.289167647015736,g
-12.05990099737633,1.1664377431009172,-12.010455680928455,-13.625977645120273,-4.9694235764477686,-8.741462173316652,-6.547884920283853,-5.690788804532699,g
-13.398089253025592,-1.1046991690496328,-13.273525106398836,-14.29220984738555,-4.898875723686106,-8.39216750181421,-6.072976283768852,-5.679558263043321,g
-14.463440441973159,-2.7915225325789916,-13.886250033985187,-14.318674296733628,-5.461496769085713,-7.586531720578523,-5.178782781169865,-5.165042839626783,g
-15.264461227857257,-3.8206071439927767,-13.80234568870363,-13.691351903914043,-5.499791244234935,-8.121308120100737,-5.278128318992051,-5.854044624255804,g
-15.985841816673926,-4.42241303956368,-13.256058193945142,-12.567482948252024,-5.1689571983006966,-8.566104601027265,-5.276890830410604,-6.411211617572431,g
-16.8217971863481,-4.8968854818252066,-12.61144889855409,-11.196049559630342,-4.701450041614625,-9.012831410995648,-5.288095448881338,-6.929519291579302,g
-19.01756487576454,-5.973126112021432,-11.941268377876757,-8.570790697749905,-4.176109179033402,-8.989753219478494,-5.842939206969967,-8.234174703466234,g
-17.844603831343104,-6.4285213986270575,-11.825266322551425,-7.471994388528744,-4.267454849112067,-8.813428190858737,-5.23758376811705,-9.081430151408913,g
-18.680957070659996,-6.584541888037473,-11.583261280078986,-6.444142719671111,-4.539080473106002,-9.018944051864162,-5.024158254437762,-10.005920717697103,g
-18.680957070659996,-6.584541888037473,-11.583261280078986,-6.444142719671111,-4.539080473106002,-9.018944051864162,-5.0241582544377605,-10.005920717697103,g
-19.12795076622957,-6.349101161378288,-11.12499078998601,-5.455080969838212,-3.3732006607120537,-9.595559038090965,-5.165754814364558,-9.603182998494582,g
-19.26672119576317,-5.850901520542765,-10.576812623863585,-4.609048667733937,-2.8035950465560138,-8.832975620140783,-5.6262058372086425,-9.457476778286928,g
-19.263547970041706,-5.34260097271258,-10.175018029756009,-4.094914651172448,-2.9539399283315735,-8.202584924057785,-6.387672046772997,-9.578752651649262,g
-19.169763390438995,-4.957956622438948,-10.065001829723288,-4.03370325114057,-3.8709154495384923,-7.697529488609417,-7.458319133484044,-10.008988067392968,g
-18.857481592288547,-4.5994335923189915,-10.188029071471771,-4.378226718094489,-5.442937933759269,-7.281001601121472,-7.447381507084725,-10.786333607198932,g
-18.136976795607083,-4.063324010318299,-10.334027002199987,-4.94324968904106,-7.404581524634638,-6.864489851396767,-7.430014269516573,-10.233173395241907,g
-16.892021224424123,-3.2112616787489365,-10.285219413565645,-5.508685161432309,-9.421166865982956,-6.330405976810314,-7.269613739103972,-9.619014786626584,g
-15.121882944904323,-2.012069816193243,-9.93255925505974,-5.909424754329653,-11.201312714922295,-5.584831347041136,-6.871702982802989,-8.877190541818132,g
-15.22293433144248,-0.5101797272680652,-9.30675822502781,-6.079825981473229,-12.57483573122774,-5.852462010708805,-7.368778786651108,-8.014505749153424,g
-12.840242007289742,1.1783952866178882,-8.532135969953995,-6.05041598985248,-13.505514922945377,-5.422613433935093,-7.309320289679041,-7.084789586874599,g
-10.530139256490374,2.879947180751847,-7.750007736153664,-5.902231427263038,-14.05751221866797,-4.273439679454384,-6.819992163227342,-7.582793509668394,g
-8.532939038288411,4.426262131408608,-7.071752940424288,-5.716348098540104,-14.351260790695642,-4.259835678395598,-6.122824806727779,-8.033484713866399,g
-7.0257070234560555,5.683621326684277,-6.585998712643662,-5.563529062194749,-14.517743355127024,-4.198624958716105,-5.451974492025092,-7.033429016350295,g
-6.152182649797437,6.505791000548358,-6.374535062569279,-5.516635121513433,-14.641478041579523,-4.382494228254933,-4.935183151330791,-5.910836518172248,g
-6.011072536879429,6.730198035844173,-6.4810589860113454,-5.628005309481992,-14.711650515688138,-4.958834264368076,-5.912931084790925,-4.572538075530007,g
-6.5814395288616625,6.288107874286975,-6.860053231065384,-5.881469719570459,-14.632539920503223,-5.899576105360761,-7.074405907281343,-4.606976343357649,g
-7.71389055187561,5.2824346078681135,-7.390565175158248,-6.200990677769766,-14.30906692482742,-7.091147891961758,-8.269272700065816,-4.636206460558418,g
-9.241976677354192,3.897459234239032,-7.9644177641600375,-6.533228553436002,-13.741084122058435,-8.430496092835785,-9.405332946522465,-4.651988949223255,g
-11.06439701769122,2.267668055975887,-8.545767890794904,-6.9003867936365655,-13.031417592504402,-8.569188070652919,-9.298948473520307,-6.087589514112894,g
-13.069325848857506,0.5041395383335363,-9.121128544487146,-7.34036013654921,-12.28690541372588,-9.108190965274275,-9.40913647927928,-6.998067661384536,g
-15.009032163225305,-1.1808150902788088,-9.596666895528006,-7.799668354393162,-11.49685452426408,-9.942056466508856,-9.599409460445886,-5.9577387900060215,g
-16.510876119326674,-2.4677725605949967,-9.765974206351904,-8.106185367915248,-10.501487839005227,-10.81865522074606,-9.616508087159366,-4.529394560672894,g
-17.22314665469592,-3.0676377204946115,-9.391133078414914,-8.048670751703714,-9.089622781348055,-11.41550985944116,-9.214953800675719,-4.201402853124554,g
-16.953814369723105,-2.8296363090090533,-8.333130825537472,-7.4881414636463575,-7.159482207515639,-11.499888996804424,-8.311592431411235,-3.72533406477626,g
-15.735647166348201,-1.7481555362896408,-6.643318763106547,-6.433729778444553,-4.823787430773605,-11.041415447083043,-7.049455402975369,-3.2814613131685375,g
-13.830784231278525,0.04779858143199576,-4.560064201368379,-5.054372220528982,-2.3774673506660267,-10.161428585823861,-5.6904558392479805,-3.0156048933474695,g
-11.644341559445948,2.3071208547486433,-2.4014588333666107,-3.604713151804668,-0.14953220308820878,-8.980679213786324,-4.429518117799369,-2.983324648338594,g
-9.536802342349109,4.745950555643754,-0.4163847823893295,-2.2867989100723305,1.6464192796487183,-7.548004915937055,-3.3196645913502025,-3.1534180334355164,g
-7.676389114711265,7.163169179719357,1.28852656018833,-1.1548036819912166,2.9503669732148756,-5.920394049414559,-2.3635753464178153,-2.0297960358772946,g
-6.089697229752194,9.424361231176945,2.6861874112503017,-0.1595901547591593,3.774131834405737,-4.269511427773115,-1.6320187893741143,-1.5404138575069788,g
-4.8373787265443084,11.332701425176904,3.7133762316824956,0.7162857536407551,4.096920884225719,-2.87320990902698,-1.2701831838712039,-1.6980280231044613,g
-4.083992286914333,12.601001172613795,4.236764746066474,1.3806717518114098,3.8362805876997648,-2.0033615216276885,-1.4129592380191611,-2.46860873927529,g
-3.9926021547301227,12.99708035139036,4.125647394589505,1.6754337978136828,2.903276733874919,-1.8184502820715611,-2.1110862665281567,-3.756690587812926,g
-4.598100866316271,12.470606806274551,3.3395977679554485,1.473323893213908,1.2791836018418383,-2.326292165984546,-3.3092831149256328,-5.412403213837136,g
-5.77700471678938,11.11817776245763,1.9581689466356096,0.7496857455819866,-0.9438508698558966,-3.416473579098897,-4.862108900242843,-7.248935005623099,g
-7.271908458548059,9.096695108170188,0.162428714500349,-0.3876944150260911,-3.573121285301736,-3.3174605738342877,-5.064736142442558,-7.485239451094881,g
-8.733443969799243,6.614633657039368,-1.805193671951664,-1.721097852835386,-4.430531934124488,-3.302608185143525,-5.143636105648197,-7.493430312907442,g
-9.826822305410046,3.932209067553072,-3.701987487021468,-3.0176355323717194,-5.122751546964456,-3.424874314172264,-5.139224396093587,-7.31167696525427,g
-10.378444430224409,1.2805715802312432,-5.350024988745027,-4.149728248895967,-5.638456574625356,-3.703223884521294,-5.09752412962195,-6.999453212490314,g
-10.420704540711286,-1.2086575119074248,-6.662180893220794,-5.13378117256479,-7.631504314510481,-4.050489057179947,-6.281459453700281,-7.9905778969517485,g
-10.085834886825726,-3.4559857898408266,-7.620190153391098,-6.051282372069199,-9.11299590520305,-5.836294151911206,-7.086035631004717,-8.62445098758348,g
-9.488565159073376,-5.354108330752382,-8.242463223670008,-6.9416795572851315,-10.057444457958862,-7.103814744945718,-7.483626394056586,-8.899247991024492,g
-7.823681071579886,-7.64199571348441,-8.574084343987883,-8.389409569869208,-10.325709372148026,-7.835873284620517,-7.069261467254239,-8.517426558530005,g
-6.854221881665827,-7.840290889284605,-8.22842070743867,-8.683344367505674,-9.548092760160712,-7.178266837995676,-6.117585104664813,-7.827960653633326,g
-5.788984686334951,-7.237115192334142,-7.426678224412589,-8.521327643424438,-8.038713922514788,-7.3287644412745845,-6.028834753346044,-8.326636304824962,g
-5.788984686334951,-7.237115192334142,-7.426678224412591,-8.521327643424438,-8.038713922514788,-7.3287644412745845,-6.028834753346045,-8.326636304824962,g
-4.666589762824222,-5.753342578741587,-6.138028596939914,-7.896727417962036,-7.712357156558362,-6.846749012743428,-5.373548184743066,-8.505415322234573,g
-3.6595225870423937,-3.5113557971232496,-4.478322362166115,-6.950579352156271,-6.85442625467171,-5.67084701357753,-4.099560276841815,-8.339056903157195,g
-2.9987976448038283,-0.8079127595877157,-2.6804570776205265,-5.899169300225518,-5.545903943287625,-3.8925307468740313,-3.785378254789476,-7.8763589921654,g
-2.807501319151119,2.0721397570144213,-0.9766422346749088,-4.911416522453621,-2.2989775516072486,-3.509078863154309,-2.1935907677599102,-5.814968176604679,g
-3.024678166256801,3.093441053743303,0.5072310787002997,-4.0405054198872765,0.7424287493876237,-1.5963882942679533,-0.8793754451016327,-3.9280102582968746,g
-3.4577261661622094,4.000125790490495,1.7823334971250926,-3.2364569431917873,3.471944684000367,0.04110456102454894,0.19643800714305729,-2.2851306680893173,g
-3.8642587759058626,4.822677411703611,2.95222211048349,-2.3985760148877118,5.889507888850458,1.4461231082939991,2.1318279335626587,-0.8475013612138961,g
-4.0268105493344,5.5607330552193055,4.114208971734801,-1.4469088466828997,8.009535490912222,3.9641103355828626,3.6039932133517154,0.44435599515349916,g
-3.8497209433806154,6.13253372560702,5.252969785008792,-0.40342100368006195,9.774820621571173,6.000487102189744,4.632015559285078,1.5885084171364905,g
-3.420288223384169,8.098320586275587,6.205191104354926,0.57352838327002,11.044013664647299,7.428535335837161,5.145449722849397,2.515240595130221,g
-2.9352255537542384,9.355672262306541,6.736655669631654,1.2549611747966911,11.651421085679134,8.099894510735123,5.018920729039858,3.1180300388791524,g
-2.5468118062296536,9.75507857726289,6.671505336992783,1.4618449826967876,11.482276096308551,7.90240673720964,4.1367416161101245,3.279266109255289,g
-2.295151093596104,9.33105660907435,5.975922461132791,1.138549199315857,10.526009651251508,6.821458245120747,3.9592319920338177,2.926533702749025,g
-2.1583194388754814,8.232833028441622,4.7692984812700345,0.3512609414531802,8.911457788722066,6.778865889637392,3.470463623566465,2.1319434175108007,g
-2.095214819909545,8.531006891156238,3.293065738515795,-0.7395076171230496,6.913404393790965,6.446004644447439,2.790591783093907,1.1516252381343293,g
-2.0389092305887937,8.654580205763148,1.8372660953614002,-1.9194289032913208,4.885132837701982,6.025312804328175,2.15073955393592,0.3089641398869606,g
-1.9408370414503147,8.78236154544189,0.6119736125391001,-3.006948442264049,3.111469802230414,5.703134883558268,0.7156162781583281,-0.20577271634892375,g
-1.8768658348673586,8.999259838656693,-0.3671596213276205,-3.951283886322949,1.6753215901085703,4.188583499969726,-0.1551429805776329,-0.4413453979854875,g
-2.0533002490457823,9.233102511235538,-1.2554262107283105,-4.8308758902844975,0.45957395041183624,2.876214426493715,-0.7155901216615608,-0.6134605452513909,g
-2.6319646396427854,7.6178179468214235,-2.2004835356062666,-5.719987920275764,-0.6964368595268713,1.5734959977435181,-1.2442350624010972,-0.9243531139722567,g
-3.541984111977283,6.055249981775633,-3.1589136476440047,-6.546300153985361,-1.8061236506807632,0.22367415632588097,-1.8488249215914376,-1.3967903442080458,g
-4.479211927361289,4.774304889668867,-3.876362198644673,-7.079121704738294,-2.670529726124295,-0.9998879985193815,-2.3849276859755077,-1.8243361821372623,g
-5.075102475209713,4.015435167469037,-4.0480030146765715,-7.051117958372124,-3.003137411314082,-1.781357683538424,-2.564730379896519,-1.8944051453194848,g
-5.078107981537729,3.8823441981775764,-3.5284174256817677,-6.310274069854154,-2.654251247566893,-1.9072125145133954,-2.2083512025480525,-1.4270586417220994,g
-4.457926815836762,4.308582364714978,-2.4370450623605864,-4.909222559853044,-1.7498847836655487,-1.46355730551371,-1.4266566051253826,-0.5337902787783722,g
-3.410042844561518,5.095569262752119,-1.082302949833451,-3.0853466545032378,-0.6136783947647375,-0.7798463119444344,-0.5457667248204194,0.4709318029334749,g
-2.230407947888894,6.0071163980863265,0.25061252189699623,-1.1282416528272958,0.4754259000215729,-0.16077235012418684,0.1601529696524834,1.333498370346217,g
-1.1096553588754614,6.916433758281113,1.4868273902414348,0.7869820276014373,1.4771131944750548,0.32978082945277154,0.6591718443343008,2.0441639558444353,g
-0.034309688655587235,7.874035236739364,2.756126430074237,2.6583393784788156,2.557654682344888,0.840968395646837,1.1088727548868182,2.784414593328307,g
1.0888304681829264,8.968606242388955,4.194388963877584,4.549758456130624,3.869757460921633,1.529039912522423,1.6546772731906636,3.7299745165439253,g
2.240862948138399,10.116347794963277,5.750582879479667,6.440125643112768,5.360213274236555,2.377104420317779,2.2796274697873526,4.896287454154961,g
3.2730490487346975,11.057795953576695,7.19208917703371,8.19471552939655,6.779433018745431,3.17457683232289,2.8078474926733388,6.1182345934445,g
4.056082660546797,11.581202177966308,8.284247661930854,9.666240909182214,7.8645851769973305,3.65459895349532,3.0361200851794394,7.147467966940525,g
4.577671950234989,11.688781030504316,8.950631439060567,10.789841299788145,8.51968515074735,3.688932812496914,2.898917898920011,7.8043450519455435,g
4.893460328648762,11.528494501372055,9.279190164466362,11.584605798358837,8.845515854195037,3.3898373516697786,2.539086744114396,8.085910784581838,g
5.053377534385296,11.233466480384823,9.410660663677296,12.100259306965507,9.017079792493407,3.018756697543,2.2016665006160427,8.135983532074022,g
5.1000223903720805,10.856791040728302,9.42522344056292,12.371401311941131,9.127400936873162,2.7734951630621274,2.028574258031576,8.097432453998444,g
5.083334103292325,10.386656767451058,9.303605005431777,12.391892214986564,9.128152050406447,2.657296097274413,1.954833632353839,7.991618313652792,g
5.041188557164197,9.766310949227503,8.974026211240888,12.115836983965387,8.904548583763695,2.5434398222724104,1.8085270621022045,7.731932674789105,g
4.992996595995775,8.94924968159048,8.403963549583374,11.502998499043201,8.402981086510048,2.3332896749650502,1.4935197730167808,7.220563256276776,g
4.957942771744272,7.992025511867534,7.654637697357041,10.57734592534715,7.689137680436606,2.0357503990198156,1.0664988573258511,6.416513729119396,g
4.924466193351948,7.052811302365683,6.836980118515001,9.425264430152634,6.890934329979619,1.7278723120692903,0.6668965584794669,5.348472431260982,g
4.318081866154799,5.498127282308652,5.1296941863597985,6.7076596077530155,5.295590464315739,1.2992112383982133,0.2584489648442966,2.829888351142997,g
3.4130785423777206,4.68194315501307,4.110257093908723,5.168876900145355,4.435572148957088,1.1371404376566008,0.13360569235131714,1.618389868321173,g
2.1132408876785496,3.737312445670386,2.9091635596485554,3.5406105122425147,3.47836307896888,0.9147292179986971,-0.10971206338820376,0.5063919659747771,g
2.1132408876785496,3.737312445670386,2.9091635596485554,3.5406105122425147,3.4783630789688793,0.914729217998697,-0.10971206338820379,0.5063919659747772,g
0.5932551573120695,2.7349977716475444,1.5669022187769495,1.8886446695981456,2.456559197710697,0.6071980719180965,-0.5037190959672582,-0.5277565192849246,g
-0.994151199200233,1.775128258194115,0.17704825137850558,0.2862036223513652,1.4582109949784896,0.27754742906301094,-0.9293904282468551,-1.4918315523327212,g
-2.5830822606667247,0.9181560023467101,-1.1701370813483039,-1.2034015659197626,0.5652866651783464,0.010233577842894937,-1.2194949619694653,-2.359131625973845,g
-4.167396025922825,0.18332502562153158,-2.4390408444127054,-2.537458494780791,-0.2075798407282819,-0.18577201344435937,-1.3180414380950287,-3.106976218746866,g
-5.766469013053892,-0.4628788914298063,-3.6641463746280407,-3.7139098067645913,-0.9154075026761598,-0.37557602600897266,-1.317057054123301,-3.737387356934615,g
-7.387289489575214,-1.1076851996205073,-4.898860858499028,-4.769308435129946,-1.6137888319611928,-0.5965419118492413,-1.3373004335460044,-4.248573282775398,g
-8.959523643932181,-1.8038935433732828,-6.12752882521693,-5.733883459097951,-2.2837426153713354,-0.7915484801995014,-1.4029294039216442,-4.61677317300063,g
-10.326972180919363,-2.476697050439829,-7.240318093117693,-6.600107423781789,-2.83477819389725,-0.8616600841089254,-1.4395345545293077,-4.826939687119684,g
-11.371127973882723,-2.9935789819239385,-8.122658063362644,-7.35936470543688,-3.1906322583409015,-0.769256158848072,-1.3649014898905723,-4.905971572368034,g
-12.146768532553565,-3.34415811968425,-8.771428366931909,-8.053784938255813,-3.3697587224397005,-0.5817672692711826,-1.1688221515166999,-4.912212724988685,g
-12.839101884231772,-3.681927269966888,-9.305064277127517,-8.75060262133478,-3.4764906335099317,-0.42989725694186476,-0.9281604171839032,-4.901933138737421,g
-13.571831257858907,-4.1592891906332525,-9.854166237478035,-9.456322750987164,-3.610158612227523,-0.41986151834539676,-0.7535238305371446,-4.904095169474184,g
-14.292334217559588,-4.775230434743365,-10.44662509828431,-10.0824322559423,-3.7754301714501173,-0.5508610398099751,-0.6919207631382311,-4.898934201834559,g
-14.845388108259106,-5.407028278973466,-10.989132889700453,-10.510138574774352,-3.871664380734085,-0.7021273820219716,-0.6638724059558436,-4.810575580889461,g
-15.12073107339676,-5.932955372998056,-11.346937354208215,-10.685177218064192,-3.773197812872443,-0.73179940518875,-0.5218549840801613,-4.5552618913845055,g
-15.14002622210641,-6.299955602179541,-11.457238115906154,-10.665105189527534,-3.4408997276406588,-0.6181866095733319,-0.1944052325462038,-4.131088923773293,g
-15.063601232201117,-6.541687560528966,-11.396996178558016,-10.603428788635446,-2.973586946893067,-0.4903141835539446,0.2433190734985035,-3.650862214105596,g
-15.118007900030275,-6.775365994790936,-11.339609961662848,-10.675187596575514,-2.5461971149129257,-0.495104615331649,0.6587917364116588,-3.261157085048448,g
-15.435646987453193,-7.113778266115037,-11.407423630344203,-10.958391920916991,-2.277302345002706,-0.6394039324365213,1.0013860725574566,-3.028091099457896,g
-15.913245613154212,-7.511923795908868,-11.543548705594773,-11.351922754224516,-2.1423440821117454,-0.7749085415883017,1.3305900439555767,-2.9098112605068014,g
-16.27366108526865,-7.746016052092618,-11.547905267258328,-11.637786537993698,-2.016809107258023,-0.7274405269694932,1.722671226105355,-2.8273606740776285,g
-16.32389253320796,-7.6221888786738266,-11.26723597430152,-11.668890744603418,-1.8120616839178703,-0.4336489815991326,2.1756639857894586,-2.7490788598880576,g
-16.140613428929147,-7.192909658971061,-10.753633068340772,-11.504545206661705,-1.575371622901789,0.02110264277847581,2.5982097840039104,-2.7208618153897723,g
-15.977000834497108,-6.714152734926057,-10.230707211653272,-11.350365368773614,-1.458555830946376,0.46947503525359463,2.872892729905779,-2.8299242469946613,g
-16.010588856008447,-6.406611273827704,-9.905209515248329,-11.364007345751443,-1.581210328807618,0.7837952328747937,2.94670347523567,-3.1174990512188705,g
-16.196189655118665,-6.300801591102377,-9.800362908676352,-11.511049049537638,-1.9079291763761046,0.9729467942202785,2.8890868591612104,-3.495183812343086,g
-16.3132205359856,-6.274096596452936,-9.741429272718381,-11.580223691450934,-2.2477580264288606,1.1631607935221653,2.849672374508532,-3.7584715589829627,g
-16.11478925392767,-6.164384638789137,-9.490748021555726,-11.329066912268559,-2.3848029366766554,1.452512685910135,2.917471746485263,-3.7266110687197296,g
-15.485263039095177,-5.871665015394784,-8.931349302033688,-10.659120773813008,-2.2382686389039144,1.7736646405268757,3.0113982438648836,-3.3891895750877916,g
-14.535522364711378,-5.43868032214922,-8.163090630645309,-9.701683411001252,-1.9148910080151276,1.9218314970116364,2.939278357369549,-2.901850252362113,g
-13.537268591144391,-5.038053098034473,-7.419833598098011,-8.727660264114583,-1.5990646785897753,1.7351528016098468,2.585991642151444,-2.4311755668481414,g
-12.694211804581254,-4.800116936585125,-6.858813874648351,-7.927177508055753,-1.3711082568058204,1.2505819492326091,2.040586655473739,-2.0104796670871417,g
-11.95945834678334,-4.632439512811272,-6.412793616287736,-7.254906067423173,-1.120216888193744,0.6954412876210206,1.5414325010070187,-1.5358357495901087,g
-11.113302510567268,-4.276782929965902,-5.856883321714362,-6.503188917460011,-0.6404320663758956,0.3370373308437108,1.3029243643727422,-0.8794239175390455,g
-10.020204128242016,-3.5734707332931235,-5.028319481270087,-5.531513907481317,0.16968329411684743,0.3076979787487664,1.3653113657864282,-0.018151301767428674,g
-8.77311010165322,-2.6212815227278012,-3.98426651499722,-4.415319202547378,1.1809835947558287,0.5147289679981556,1.557958339856002,0.9045058900912707,g
-7.596509020078746,-1.6645508801841538,-2.960555011028602,-3.3791334829541504,2.0968874252938576,0.7036036964449968,1.6006328346052485,1.6322304221520123,g
-6.657680071709104,-0.8841375661436686,-2.1906969464263337,-2.605010049361852,2.660748149297153,0.6603294399838937,1.3027239598814664,1.9598118753115226,g
-5.962819442382535,-0.31389293909322946,-1.7442405685435656,-2.0963171457510787,2.84133924130598,0.4059770455864302,0.7245463994340693,1.894247127597826,g
-5.366836769225496,0.12019897338162973,-1.4974154200468224,-1.692593634243989,2.8433671080362415,0.1913884396311492,0.14119688641336242,1.6530989522950184,g
-4.66746513639061,0.5309354200726192,-1.2463124581041667,-1.2108146589623459,2.929375120382506,0.2682712084515356,-0.18954702382382374,1.4785093268170983,g
-3.756717825805423,0.9797578790312294,-0.874992527393841,-0.6050631814296772,3.201048188203714,0.6477487474122264,-0.2450357315709984,1.444618717633905,g
-1.764493261152514,1.6245268957564662,-0.07197246474480919,0.43164644825272447,3.699570219082085,1.2429246045626265,-0.4163309393846225,1.3337060433433947,g
-0.98465031808603,1.6103186929006106,0.15774866786031744,0.7084167445583585,3.607080760756177,1.0049612214734505,-0.8740440080338663,1.0900478606789925,g
-0.29571531145123703,1.4874438976537925,0.3288198282091885,1.032314569421883,3.3519050056050212,0.4815891185863979,-1.4955361840262626,0.8233058392092912,g
-0.29571531145123703,1.4874438976537925,0.32881982820918854,1.0323145694218827,3.3519050056050212,0.4815891185863979,-1.4955361840262626,0.8233058392092915,g
0.4393425510365859,1.4370365108881173,0.5582829462039861,1.6272540657036108,3.1256210259194144,-0.05506272829472827,-2.063187613613451,0.6895338879841829,g
1.228433062278403,1.4850154461540044,0.8667274595374235,2.5258679421174173,3.0345551230419368,-0.3882360254722984,-2.4273723095528728,0.7618145094168391,g
1.9450011013083341,1.4962652631767424,1.1511467335291892,3.5429206442908154,3.0126889706485214,-0.5226949871425008,-2.6295381409198093,0.9550238646790741,g
2.455040105332915,1.3334185170153439,1.2730383383875927,4.429455877589481,2.886663420329546,-0.6701902040986605,-2.872277427817431,1.074170004163646,g
2.7047919784285037,0.960768937028311,1.1622002822014363,5.045312984586921,2.525675943043666,-1.0479050317394645,-3.335776440255895,0.9727755250073414,g
2.7235860652573605,0.43004422852317903,0.8602534319728402,5.4229691944613085,1.9530415412118338,-1.6653465872145232,-3.9983471283898764,0.6867406561218572,g
2.598695674292079,-0.14946566328488017,0.4898415754575602,5.705536568384366,1.3335026492209061,-2.300689978930837,-4.637338186914108,0.40590422318031755,g
2.42670504100078,-0.6354502585872434,0.17069041416541425,6.00967465699218,0.851843057561131,-2.6744194405051376,-5.001379442685006,0.3099367255720752,g
2.2373371136903035,-0.9323139434769953,-0.05920388218070873,6.310426286564732,0.5915667619681381,-2.63901845341893,-4.97492262243306,0.4373453979902314,g
1.9789593489045885,-1.0645195930313918,-0.24116748832620744,6.455373874089413,0.5181760688822571,-2.232494960312266,-4.604559203330526,0.6987892708252332,g
1.6229105175464085,-1.1155886002527475,-0.40822684366265555,6.311262326254099,0.5631152554214276,-1.60587343387865,-4.019712619340441,0.9833524888225739,g
1.2569933015305996,-1.094203584374189,-0.5152036395690178,5.895856497034826,0.7069945999452305,-0.9155307478820536,-3.340357776684211,1.2465367572915529,g
1.0111915076635989,-0.9287088971857086,-0.47565690503636426,5.355675088532489,0.9815947873912799,-0.24185555822031796,-2.6170135195179145,1.5302401928352414,g
0.8953511324072775,-0.6019028663947594,-0.25725562080335185,4.834883284717525,1.4107918425671027,0.43281644313507195,-1.8234239936713657,1.92067572433035,g
0.7735394735324344,-0.21291028196839434,0.08492155403301709,4.396556207433784,1.966029728708333,1.1700390281452513,-0.9185371420495485,2.4680468561038076,g
0.5116824658350299,0.1272420246496996,0.4666669051966067,4.055741929349209,2.5758556757615167,1.9875576555235714,0.06576379094639853,3.1244900328522576,g
0.1032421187584015,0.3992817833379173,0.8404971072913499,3.8333352065608906,3.166190860795332,2.825660613026587,1.006368232159827,3.7666394840040667,g
-0.3587090280445743,0.6398655960654218,1.1989034696412602,3.7478895228767586,3.686105603793127,3.5911722957917744,1.7636708945907429,4.286428429433343,g
-0.7844626820564289,0.8571457059627523,1.5317534148692544,3.77154032284786,4.095972546625426,4.2051396202224245,2.2572543798393925,4.644234426961625,g
-1.1547717222786271,1.016645245058466,1.7869214514633167,3.8124017554201175,4.3331101175327165,4.599068660852786,2.4660021106895647,4.828127755011699,g
-1.5435962514420967,1.0548213869648428,1.8616434950970482,3.7416978153328104,4.298868707647582,4.703233672184021,2.393385103296389,4.795491627135019,g
-2.0946476345833256,0.8676730764661427,1.640831330069053,3.4577051455942938,3.9021850906324866,4.479925085288896,2.0670286569713956,4.489724461876146,g
-2.9131679180883068,0.3527323403648904,1.0787903426602896,2.9661792198293186,3.1387660758057243,3.964826655332169,1.5547570971950497,3.905849675827487,g
-3.934139406210755,-0.46672138893154774,0.26185542011465257,2.4120244726844713,2.1319034428059918,3.2519555670532645,0.9441562644200422,3.114939334159945,g
-4.934262928793525,-1.3984916831023455,-0.629358055665775,1.9931219974032064,1.0807319067239987,2.4369934002165894,0.30270223686149944,2.229257350288642,g
-5.719146704616696,-2.236224638697583,-1.4449760537648935,1.801327989790098,0.14804255931668422,1.5821411074795422,-0.32965803066303395,1.3586513689817294,g
-6.28079217146952,-2.9452079972892653,-2.157877760932672,1.746311938041724,-0.6198319570867817,0.7166162530462347,-0.9244333304677909,0.5805892916561284,g
-6.749811848919228,-3.6457907435089374,-2.835522901002066,1.6477064239251278,-1.2796176306412606,-0.15360283131659616,-1.4666059186701197,-0.08467310149942504,g
-7.233153210361782,-4.439188439931536,-3.53952188850972,1.3964471886053462,-1.905937125362708,-1.0254879753368482,-1.9608623440144768,-0.6703506726133287,g
-7.734827686024969,-5.30580833681715,-4.2592404038860625,1.0266614435936092,-2.507632724258165,-1.8602451407639538,-2.4046651089905406,-1.2062069673896407,g
-8.19021727843037,-6.1432761004130185,-4.918492958926176,0.6611134626825758,-3.0067954622733657,-2.56997813017665,-2.759148371363731,-1.6600072096102312,g
-8.51506206217836,-6.825857346093291,-5.424732173283415,0.4101882277096946,-3.292284164572904,-3.0729146999358923,-2.978286435049732,-1.9553763244645457,g
-8.64269151093563,-7.241184298413846,-5.72944385751618,0.29765478870324097,-3.307501365088875,-3.366561644810253,-3.070398194743505,-2.0476725538329896,g
-8.581042664719899,-7.363025381100398,-5.874561271320895,0.24068498076761652,-3.1059593874199187,-3.5254987229442443,-3.1039012342508063,-1.962260196301846,g
-8.43805236026382,-7.314742662195,-5.983325460925611,0.10033395015836186,-2.8312981071816097,-3.62802532399638,-3.1467935145012795,-1.7660405446409118,g
-8.344421393125538,-7.297143013427979,-6.182494826798515,-0.21616516118602463,-2.6407569327548526,-3.7112863867949244,-3.2241502880517543,-1.5392041241620877,g
-8.34850108841948,-7.42578942987395,-6.520737493482249,-0.68971282798977,-2.6361115407502815,-3.8010979662374935,-3.3393108798546622,-1.3843948506486998,g
-8.423083321179757,-7.681156420041856,-6.96339620586905,-1.2355093525119767,-2.8477815496131647,-3.9526490478163447,-3.509036784951749,-1.423616049388996,g
-8.560308517714393,-8.017303584109907,-7.45438320030852,-1.8088871679776553,-3.260272231633089,-4.238166458716465,-3.763526348107213,-1.746086828215219,g
-8.797428864881866,-8.441603694859351,-7.962709592934997,-2.442486147963495,-3.8351121629648484,-4.698411797632143,-4.125574252060308,-2.3511055544884125,g
-9.139503845259387,-8.955764406376382,-8.472269295754584,-3.1781996070960403,-4.50810130661174,-5.301824989418433,-4.588672126940168,-3.137530667164687,g
-9.514167437983364,-9.488670281412755,-8.95354641810334,-3.988047070089832,-5.179089739236661,-5.929996640547723,-5.088620562838157,-3.9344114006262614,g
-10.047533753747036,-10.278665824093713,-9.66092200536045,-5.433232571681308,-6.0803366965644745,-6.634965541365773,-5.689009125868295,-4.899549198494993,g
-10.1815085479322,-10.505326409775023,-9.84925339064924,-5.931544643161706,-6.251148781394578,-6.649213758994454,-5.6649830898103986,-5.007316008191486,g
-10.281953647340693,-10.66426811692472,-9.977984283232072,-6.329582193620697,-6.363870870165146,-6.66827556620535,-5.576906884808563,-5.058429133451194,g
-10.281953647340693,-10.66426811692472,-9.977984283232072,-6.329582193620696,-6.363870870165146,-6.668275566205348,-5.576906884808563,-5.058429133451194,g
-10.423403887792213,-10.835352031368556,-10.133233706166733,-6.742896930561568,-6.557628442452431,-6.899314007165323,-5.609211877083299,-5.208068682434448,g
-10.657122397744455,-11.116363988419689,-10.372292782621594,-7.232663985275842,-6.873205398235595,-7.372149251544691,-5.819088324233897,-5.448465443668993,g
-10.933037963202988,-11.521459941555587,-10.659996617455839,-7.710617174647021,-7.209843174669324,-7.930026945543704,-6.101484653169687,-5.6256556732541245,g
-11.107884204096077,-11.932803324390708,-10.883347480742597,-7.972343305071433,-7.406445238327072,-8.37486766461862,-6.293297311648606,-5.5889922841000725,g
-11.074322379931939,-12.218688407060839,-10.946869463497952,-7.858789831881941,-7.384193265997661,-8.615886100400203,-6.300508476623323,-5.321409772189828,g
-10.861649507811157,-12.38217715768422,-10.851174844201829,-7.394063073445089,-7.225760377043346,-8.71145307282448,-6.156731822902908,-4.95458936035469,g
-10.583205908454353,-12.53714580070479,-10.674395434201992,-6.764110560567545,-7.120889186112096,-8.80628203063854,-5.99976251765537,-4.687567830888518,g
-10.318434765463918,-12.756184724190003,-10.490276523622148,-6.173275130258644,-7.223142983443687,-9.014899514369349,-5.979407433582924,-4.664791457475442,g
-10.081376966345548,-13.00005872494412,-10.315085831952423,-5.723716842563197,-7.5345896844088,-9.31851708653857,-6.139764693743536,-4.876106378759396,g
-9.867258849005227,-13.18097658873943,-10.123214840161365,-5.401735389019329,-7.912011005936006,-9.562147170882453,-6.375547610620293,-5.161753667077465,g
-9.675470862443426,-13.233508643082203,-9.901427830359292,-5.146103883719802,-8.191194557269991,-9.58179738473851,-6.526077818739525,-5.349775273955688,g
-9.503012342741087,-13.135638618453914,-9.693409211486728,-4.93324737623138,-8.324913688379182,-9.350788496789061,-6.518334050119113,-5.407639825900777,g
-9.361836578571573,-12.929911256441196,-9.595517802753234,-4.819043538156982,-8.4115537153423,-8.988861164955416,-6.401323989028302,-5.445231678959606,g
-9.288226478262379,-12.723569091374031,-9.689395369834468,-4.8976077640980495,-8.58908793328085,-8.629646934820876,-6.251409911483256,-5.571655049392796,g
-9.288621712649672,-12.596473093814355,-9.95793540535904,-5.205441386725104,-8.900738264482538,-8.305056456428963,-6.0857133547521105,-5.781055685878999,g
-9.290387022167128,-12.49688353266514,-10.27690370602414,-5.674320808679754,-9.264774815512952,-7.961506289385457,-5.879052757686905,-5.988120708730617,g
-9.200764649800377,-12.295798641668474,-10.512992527751983,-6.196791773332214,-9.567403358828852,-7.55334311441693,-5.627248153868275,-6.142947933458143,g
-9.013156066445893,-11.963718047453233,-10.632810951252731,-6.727418414993913,-9.77107006655803,-7.09904405852849,-5.365081114421397,-6.288325016395719,g
-8.805963724206272,-11.626417406863151,-10.703706805077116,-7.29203658160237,-9.928472454961625,-6.667189596340282,-5.136360765053865,-6.519688170668159,g
-8.63578108386704,-11.412831577669186,-10.792238901036717,-7.900814201865339,-10.101491467427737,-6.325573635551601,-4.960041764327058,-6.897890144514458,g
-8.480598830891548,-11.302725462252294,-10.876848224535141,-8.48416531263005,-10.275454176895272,-6.084878052582346,-4.8085308684245005,-7.374170182319768,g
-8.288793386445287,-11.157009457107575,-10.854699470015557,-8.924431531134074,-10.350487973121371,-5.874590382942177,-4.611077550684822,-7.782234862413887,g
-8.026695788559529,-10.846310844311995,-10.616986405131673,-9.131690502242481,-10.214805022459892,-5.59599033615212,-4.308384500667051,-7.932996060750763,g
-7.668925320177072,-10.321324325565588,-10.128169560554019,-9.08827458134383,-9.835789179978708,-5.2264681818554966,-3.9282252390658967,-7.755500406591324,g
-7.2104090213242475,-9.62733726769596,-9.467367228539334,-8.850560564454055,-9.291787273685937,-4.862638795082795,-3.5865891755574304,-7.345690863243652,g
-6.725369236062656,-8.910858092787166,-8.803729037587837,-8.521652972930585,-8.716917417674427,-4.638635750231412,-3.385664325961476,-6.8634236892901015,g
-6.361525688422688,-8.358898270002797,-8.299285301988423,-8.19454615935699,-8.207106376427003,-4.605746494738948,-3.3194647782961275,-6.393460108116822,g
-6.219697434563356,-8.04923024781874,-7.99850847742964,-7.893019743774941,-7.769414440314316,-4.700512349316182,-3.2977137385244575,-5.919731256134965,g
-6.250233808713157,-7.868383635173727,-7.800728159544322,-7.570114729402737,-7.3493842544140975,-4.806831778517941,-3.244003466523105,-5.407078199758914,g
-6.28695409827066,-7.624267276272432,-7.539635705570684,-7.170214635536818,-6.892682496342173,-4.8212134700658265,-3.1427853038733353,-4.8665550372975215,g
-6.15496094744571,-7.221357978576892,-7.089698316058039,-6.679274422941226,-6.377047964042731,-4.677095057089735,-3.0069012995566795,-4.343408226128866,g
-5.736698250528554,-6.68928387413675,-6.416647156468359,-6.112757075185918,-5.802022442711418,-4.355244108187969,-2.841511910606625,-3.876152630879357,g
-5.001755691069096,-6.087119054355966,-5.569156025859913,-5.486945430134091,-5.171595823676091,-3.8882209439987805,-2.646482300239552,-3.4762891028075544,g
-4.039358541814469,-5.455122304924935,-4.645275860075818,-4.828160021920795,-4.4952362399142665,-3.3350690691129365,-2.4265047363842562,-3.1279800996707454,g
-3.033866776885644,-4.836366860083027,-3.7429016087982694,-4.190952754892183,-3.7985830578394313,-2.7425161373811946,-2.1913708282912565,-2.8073084702131643,g
-2.1401798968864756,-4.258743893685185,-2.907754390276158,-3.635048005111051,-3.126598654319807,-2.140361009030621,-1.964014150982758,-2.5244579047994598,g
-1.378218430345132,-3.690103857275742,-2.1264060967747604,-3.186504945322782,-2.5342449052255476,-1.5636765511294874,-1.7832687746934508,-2.3428027187517952,g
-0.6819165966877081,-3.0847196161973867,-1.38340888800127,-2.839932432187699,-2.0664188452948826,-1.047446957971222,-1.6670747655587093,-2.319644254528648,g
-0.03194836456005481,-2.489605828326655,-0.7204797203260134,-2.591235220448657,-1.7351973078298755,-0.5954478374582811,-1.567490266831769,-2.414682353537608,g
0.5056548660544622,-2.0424878569093234,-0.22767829505696477,-2.4498217536208657,-1.5156691686136337,-0.18711377289059863,-1.395125017951544,-2.4872318218762866,g
0.8510701568317497,-1.8464589286725386,0.015439494694259981,-2.4306330833549987,-1.3748941005422883,0.1695444336557405,-1.1064704836059516,-2.4079246724089662,g
0.9585212563751491,-1.899586508506069,-0.02117208051573415,-2.5598079615775333,-1.310568691500062,0.41777240835233476,-0.7473483424722513,-2.1629016439130457,g
0.3750087762009437,-2.579608862742681,-0.8134985370871505,-3.4020505506150207,-1.5353168989821104,0.447225523783922,-0.09586136162922392,-1.5514116612830167,g
-0.23833656708941503,-3.11693130416673,-1.4051204869670009,-4.067343525710923,-1.8282927988129298,0.3214208065867702,0.17888377139430184,-1.3303846023038386,g
-0.884349723227548,-3.6624727758833315,-1.972019295760036,-4.733890230768099,-2.1471906032251002,0.23549579513289745,0.4783827637417481,-1.1279202063097735,g
-0.8843497232275478,-3.6624727758833324,-1.972019295760036,-4.733890230768099,-2.1471906032251,0.23549579513289745,0.4783827637417481,-1.1279202063097735,g
-1.409873608727248,-4.11435776901226,-2.40484955760457,-5.254871550906961,-2.361532640510423,0.29892049295107476,0.8740624351285222,-0.8074053924536446,g
-1.723887088845828,-4.416429389238359,-2.6205565719361323,-5.541727067815804,-2.3407651745444547,0.5899828045997823,1.4357151796175498,-0.21657176021430025,g
-1.797538385017407,-4.530596851688072,-2.571318117949521,-5.582477542541172,-2.0178623617604035,1.0916165890564626,2.1675039456172573,0.6901580922092718,g
-1.674758993090642,-4.434748706075019,-2.2755543681566843,-5.4352671415369445,-1.445125719676688,1.6572232151795803,2.954120369949719,1.7782755970722472,g
-1.4976872180504288,-4.19676745174368,-1.8406583690050726,-5.204558624800909,-0.7853300791060555,2.07902923066193,3.59945178348926,2.803523887211931,g
-1.4427783831283112,-3.988508696926889,-1.4147607358719505,-4.977559656197632,-0.21872035570976242,2.2172572728680207,3.9399126670005864,3.573912025547904,g
-1.5688027792056123,-3.9500021626724475,-1.0860057202914273,-4.7533526547526055,0.16620607148678967,2.0721522376257107,3.933313527786846,4.055962681297769,g
-1.7570254293371523,-4.065136347034746,-0.835871401929623,-4.453213766551148,0.40153444523262616,1.7502389594836263,3.6674963403138086,4.353417349000087,g
-1.84409247870212,-4.230164390837928,-0.6013482002497093,-4.024110140630784,0.5679467319247422,1.3758511627330394,3.3044094077537656,4.60669748416497,g
-1.7894747240689395,-4.415566781463592,-0.36932438376009785,-3.520157328851757,0.6964735949041753,1.0101612392769366,2.985775137983801,4.888205277175629,g
-1.6783154157632942,-4.690908809128148,-0.1965899018148809,-3.0635583197334126,0.7330893688439396,0.6156262990566442,2.739222737167105,5.146231822472876,g
-1.590029667442327,-5.102978025043766,-0.14616040871652464,-2.7336910084327193,0.5918496674313608,0.10287324832839975,2.466966144936793,5.243236861077511,g
-1.5027544578794088,-5.592320687139746,-0.21163557096883343,-2.504066468259975,0.2497608816178643,-0.5471196116111054,2.060665482996311,5.085733094522227,g
-1.2970840387809166,-6.021506077144575,-0.28973533539235646,-2.269096638983152,-0.19605586539430378,-1.1941557629805073,1.5435753010400493,4.738909632468717,g
-0.814302663357697,-6.230544581227298,-0.220338600530608,-1.9180180021126354,-0.5657845333850078,-1.6016189785155988,1.0825737394068806,4.40020158410284,g
0.04367334677973052,-6.091253983574418,0.11542370317628614,-1.412721794630094,-0.712364295255798,-1.6143324677497564,0.852834768229059,4.247217089084112,g
1.1924385409306495,-5.601199877720437,0.6975127912751625,-0.8346696076296152,-0.6207283985096457,-1.276563430165348,0.9012350988230968,4.3128044175658475,g
2.348239107121746,-4.938776093051464,1.367190187692736,-0.34786444858630483,-0.3957320535336918,-0.7810362695609954,1.1316828964908119,4.495837249979489,g
3.208844243943497,-4.340865057277863,1.9552968507353476,-0.07051028278340994,-0.14337639826223675,-0.3167328159685487,1.392440439325752,4.666622466395036,g
3.6856506370533153,-3.88234353072628,2.426977635831381,0.03833509161287409,0.14281475840272423,0.04874580018171391,1.5788750935444145,4.764221952284931,g
3.935604750451668,-3.42255192695361,2.8950167257910557,0.15203784904953105,0.5807225853494472,0.38513438063761885,1.6952980698996627,4.831605708297124,g
4.170718613580871,-2.791238117721434,3.491424372220375,0.4280349351440861,1.2846598834264096,0.8208963658095584,1.842657704281315,4.980187617457571,g
4.470814692226849,-1.9779639391497006,4.229413785961413,0.8836765331463935,2.238879395582719,1.4150064167078926,2.119996550077404,5.295526120983332,g
4.758667482632945,-1.128011821605177,4.9719761496541865,1.3929102718199755,3.2642286380492864,2.068793281347871,2.507447808584778,5.744007384007613,g
4.884499628643757,-0.4255296575993965,5.510584556371937,1.7731876849183994,4.104635747049536,2.5720019872149478,2.8544155800959663,6.170626087487081,g
4.731183712091485,-0.01000916496621056,5.692829374763641,1.895463458574271,4.5741965027591895,2.7646027851364225,3.0028375649486754,6.401878314298154,g
4.326288801689198,0.08225024486898172,5.530948273368719,1.7786524006176738,4.663215347079669,2.6629137675606716,2.9190672036187983,6.353583038957755,g
3.9043568876242594,-0.02367970802836279,5.219281967640783,1.6182021795658603,4.526671641879727,2.42926244596883,2.702134321787085,6.050059377647788,g
3.803562656151154,-0.08427117980051708,5.022236541552611,1.693477965950607,4.364763518479187,2.2350717202540302,2.486897618447193,5.5756153444957945,g
4.225869521961559,0.07931948668201186,5.100203771751941,2.1923097114219243,4.289660887147238,2.156171259073615,2.354070666751339,5.028735838478115,g
5.083808331097986,0.4373438495083214,5.413753858570002,3.0923001190879806,4.274864272076636,2.1587063963143396,2.3002361586379108,4.487910712845549,g
6.079475582124318,0.8121453931645746,5.774072833860257,4.190845981326398,4.2035637988949395,2.1377461105985955,2.247824510452558,3.966690126752826,g
6.902102592749953,1.0403761909481066,5.971810022525804,5.232281837273577,3.959087368723953,1.9757734300210867,2.0864383042937753,3.39333071744219,g
7.362612847583421,1.039711031057407,5.882652394752212,6.028902952349642,3.4966279601383725,1.6130760895597678,1.7461182739914114,2.6694775442728256,g
7.4387335759796684,0.7882809204061771,5.514400296299687,6.533641129082284,2.869884307779284,1.0906519881729566,1.2523434996456873,1.773859727580687,g
7.271951148961072,0.3403758107684867,4.997211586242308,6.8548472481272515,2.207705241908247,0.5196770267741739,0.7036085230361931,0.8104222991558181,g
7.076043595910366,-0.1549484603879568,4.506404196961035,7.182603847959344,1.6484323488574493,0.0067176401105779274,0.19853128966865846,-0.039818278392837046,g
6.9482575242144815,-0.5522437365517244,4.139468796313579,7.637327006604082,1.2638376783471605,-0.38812492340943017,-0.2070852354889142,-0.6133015635747646,g
6.747982163956719,-0.8563052566500025,3.8386132641603936,8.152544291679067,1.0197175597443853,-0.6454056570350752,-0.4984682782643044,-0.8484675075742713,g
6.2086850577539625,-1.2181968060614705,3.436026836664331,8.505452754072737,0.7988903819764918,-0.7828693468666145,-0.704020971777447,-0.8314121483750322,g
5.192210117242408,-1.771593347929477,2.7864671817026974,8.471987853160012,0.47281924556524013,-0.8612357611883705,-0.9000366434473024,-0.7627338079769881,g
3.8314760346889143,-2.509407470450843,1.8793822908620854,7.977572464273967,-0.01469113148821819,-0.9474460436401436,-1.1605475724142549,-0.8240880609850192,g
1.4216880048244798,-3.9507142546516887,-0.007040358507962164,6.27997195349339,-1.073984632442023,-1.0141963193114125,-1.6454393240554706,-1.1889327123421385,g
0.9267346031998492,-4.249361530105693,-0.49827566022751413,5.668906025260776,-1.2426350897670837,-0.7217538782636874,-1.4920646803463784,-1.0737057170557915,g
0.9332367192188584,-4.06047577175166,-0.5104102591800974,5.488100873719029,-0.9674349744497593,-0.04485983572210479,-0.8425312365267115,-0.5620278340829676,g
0.9332367192188584,-4.06047577175166,-0.5104102591800974,5.488100873719029,-0.9674349744497593,-0.04485983572210479,-0.8425312365267118,-0.5620278340829676,g
1.2014494439912777,-3.4268346147123276,-0.12262467651216868,5.6907681526829474,-0.25885966556488454,1.038010211469617,0.3372395423111109,0.2937059515050232,g
1.5071497190919447,-2.5318683428933517,0.5016072863283164,6.100830022665514,0.771411487705421,2.4611156601262434,1.9547273199873545,1.3385279579884548,g
1.8624059910374506,-1.5186679595621737,1.2587250514114108,6.585631601677067,1.9961662889965364,4.089048883113398,2.445721664713056,2.4140230789872077,g
2.4915923164052134,-0.3965710328753401,2.151573162274247,7.137395143363955,3.3189263934785345,5.74345526405085,2.8218383687302064,3.417849497444137,g
3.566684943587746,0.8422550063848142,3.205328328401739,7.802630441653254,4.657700716762509,7.24841663023753,3.081604638564569,4.30890950799064,g
4.9992333415579555,2.0861785143524623,4.371655077335115,8.57801637916466,5.9157136643116415,8.467970384232418,4.456376022754845,5.065436138190564,g
6.505048291246608,3.1536718996804622,5.5307640188071465,9.394805257014465,6.988420139357572,9.310673351103725,5.441096286330967,5.632598259066051,g
7.828926595994605,3.9436951850500037,6.570310787681277,10.175401693228944,7.8031794714252385,9.727110799701695,5.983850237492881,5.924808629088285,g
8.894079777654357,4.483357572042592,7.452425897676645,10.879506323146916,8.352494858422954,9.727579786116204,6.056188479882037,5.897442952003557,g
9.798465614827418,4.863182890811305,8.220069418069974,11.50896436189572,8.687339007033092,9.385670627258046,5.671146873260467,5.603987004762799,g
10.710310730984876,5.177124139804522,8.943303841358459,12.08190800649758,8.866237266904282,8.788752702634758,4.869674535798406,5.157084066706335,g
11.712250292668754,5.47756905811031,9.632066716857938,12.584341702117415,8.894774472719565,7.980291822962997,3.701379255797319,4.637770771844346,g
12.676170585061675,5.70640495887314,10.180960580322367,12.935286706149574,8.713744551197134,6.971739070643241,3.628383323060288,4.067539738564266,g
13.303968440368475,5.687829979520142,10.418171520255422,13.028111685571142,8.260607811337824,5.809411643239889,3.5764873085603055,3.4660092814019463,g
13.34206189597704,5.267594148413577,10.23596582502457,12.835322377570915,7.551243500121222,4.602031500839032,3.5666104543418853,2.903363469800818,g
12.757905528059725,4.464265076072934,9.673973742502863,12.457666372113335,6.696780925089177,3.4729591325871447,2.4073720159619834,2.481573585463295,g
11.696023790443967,3.4322890131195485,8.868707247814944,12.04120285903485,5.835022354709899,2.500579644670389,1.5737971296593722,2.277096125050762,g
10.3093732968524,2.292027041795567,7.936350583500409,11.649604745787544,5.043590786768424,1.702606220182891,1.0076500807818838,2.3000570587710003,g
8.68370487009408,1.0618750994743797,6.914636010644344,11.230778149962333,4.309249028723504,1.0481489178962642,0.6208304901898123,2.4816492334856943,g
6.883118662024762,-0.2590753604491682,5.791131159549799,10.687496969267631,3.561874668349082,0.472134833302084,0.341771374749401,2.6923417531171294,g
4.980986808697523,-1.634484351927091,4.551029903021501,9.952016153214412,2.730601407804281,-0.09868594429469546,0.12820375273679335,2.801754828229283,g
3.0368710629022955,-3.0352084613309454,3.2010893574051535,9.010954195315,1.783472181744814,-0.7136452711553056,-0.042539423889977876,2.7470199617551705,g
1.1038313583314192,-4.456602406138099,1.781792371014329,7.90758601618676,0.7373685150300896,-1.395657956922742,-0.20854600812414742,2.5388602150284143,g
-0.7271452054562488,-5.848862364961084,0.37153116405381514,6.73442797536393,-0.35722446294247484,-2.1639402957195104,-0.4531089566038643,2.1992444619812344,g
-2.337750555654832,-7.087188948965436,-0.935027985923826,5.594099801816874,-1.440472281999839,-3.026436838732675,-0.8706139426791271,1.7160189525879759,g
-3.6512283409353907,-8.0527361970954,-2.063814280904022,4.54674307278281,-2.4590834255088496,-3.934328786151344,-1.483082415580809,1.070749882065849,g
-4.65485862099684,-8.705970777220713,-2.9789713533763944,3.60027721549602,-3.3730092737934863,-4.772871835075163,-2.209800104676191,0.28696398524188615,g
-5.357752487136989,-9.064991134862154,-3.6812153354330825,2.7451963013517515,-4.16531326641707,-5.429663600539428,-2.938385127717347,-0.571643052375279,g
-5.783330423310284,-9.178078029168844,-4.213977770539158,1.9756726298084775,-4.8526808464794176,-5.870771202500409,-3.6112022045594614,-1.4379449255501313,g
-6.012530629571677,-9.154986828565596,-4.664623625988515,1.281128722504322,-5.473694405619579,-6.141651601934624,-4.2299671828395535,-2.2617008008811985,g
-6.164323604101929,-9.151262545588214,-5.118748072999765,0.6558220832494521,-6.048578278594724,-6.309188237234123,-4.80179918533901,-3.014071789117927,g
-6.289299729505544,-9.242585201109696,-5.585565081322978,0.1342817011599736,-6.544397756936354,-6.4137121740526695,-5.3079419017783565,-3.696499159744885,g
-6.322056614404947,-9.34203194962561,-5.977453275015616,-0.21071583183866185,-6.884516939684154,-6.450846553271974,-5.708185579818257,-4.329488975106099,g
-6.174615648169782,-9.299874363207007,-6.177592443740415,-0.3304412558540906,-6.996703993922287,-6.369059855583133,-5.94589305584544,-4.901893701295572,g
-5.842934239247631,-9.062635179605582,-6.1254334177569,-0.24923857904455354,-6.8567963385969675,-6.097632640724544,-5.960428871710328,-5.335830552560183,g
-5.392773886187814,-8.689696702221656,-5.84145273357948,-0.04103935873201643,-6.4971623922996615,-5.613022854747099,-5.730114296143837,-5.529732899618479,g
-4.886299904035612,-8.256148841895767,-5.397568645090317,0.22185759687314008,-5.985234947366298,-4.984542349613309,-5.306583503889311,-5.4417501944249125,g
-4.368515740009796,-7.810003052870085,-4.88184878845586,0.4822548078445249,-5.393820567217055,-4.3366051856897645,-4.784185705897758,-5.11955980754123,g
-3.8881676860084182,-7.3969534153712875,-4.370628846537252,0.6903010766917793,-4.780193177668738,-3.7645539781811728,-4.234476995673935,-4.657885734513276,g
-3.4727162296264185,-7.041917047695883,-3.9023917257567113,0.8202396974296923,-4.182473669707305,-3.2975632587193275,-3.6866681039152143,-4.145054819676811,g
-3.098961654955817,-6.703772809806362,-3.474106196466767,0.8915079772861029,-3.629328839386072,-2.9263792798351083,-3.158701705560692,-3.6324311920991095,g
-2.7397925831066807,-6.3186536713271355,-3.0751469747284,0.9475937820157286,-3.1460986535030626,-2.6334046089186236,-2.6716709643245125,-3.1125028336127616,g
-2.249918010258911,-5.5333903076389195,-2.4669924908081775,1.069519660129639,-2.4334080746687965,-2.2141361280934686,-1.8416891757931075,-1.7924567820692225,g
-2.231342690345236,-5.280047047665814,-2.345640660238597,1.0975658771791506,-2.1959326304259807,-2.1066526266944927,-1.5184001154053366,-0.9506524641853915,g
-2.349619353485804,-5.120108505034345,-2.3752744099207512,1.0763349507270221,-2.0362185846050798,-2.1132797000010015,-1.2946853322318002,-0.10347106880422804,g
-2.349619353485804,-5.120108505034345,-2.3752744099207512,1.0763349507270221,-2.0362185846050798,-2.113279700001001,-1.2946853322318002,-0.10347106880422796,g
-2.5592088202807477,-5.020049440677298,-2.5327622450246627,1.007507682451444,-1.956586926652745,-2.2204508062568373,-1.15523684188069,0.636924050152069,g
-2.809006352981692,-4.977469445140393,-2.7509119884698103,0.9300213000159525,-1.9453551131836995,-2.351680514791569,-1.0263473565038725,1.2203594895179777,g
-3.0326788470523316,-4.988858657213492,-2.9407611431059117,0.9099012541355271,-1.9837278703444507,-2.437274523895848,-0.8540110110594366,1.631411528132362,g
-3.1955262720902837,-5.038130152645783,-3.051704394238186,0.9776029532832592,-2.0734973006956343,-2.4780034403646094,-0.679459209784633,1.8325590408384662,g
-3.361461646679065,-5.1427734001157415,-3.1123102724815004,1.071123169690741,-2.2440024602426694,-2.52249720822596,-0.6151149740571056,1.7676023306744988,g
-3.6503240866922857,-5.343566218316607,-3.1886655467367495,1.0707273681338974,-2.516820331600848,-2.599465286240259,-0.7531211643906884,1.412813316819052,g
-4.099701238302899,-5.605875862763252,-3.296241691052039,0.9039821510694621,-2.862462148253694,-2.6874317994881594,-1.0991883997188485,0.8087392931022478,g
-4.612697287854457,-5.791833407280415,-3.3724666998478354,0.601939665058734,-3.1980134324239406,-2.728002834528339,-1.5612269683404285,0.0558524235947377,g
-5.070296849655254,-5.792322872350043,-3.3476788618254707,0.24845607840430045,-3.433144444074416,-2.646660365289912,-1.9789055575042416,-0.7098606727753214,g
-5.461140012698358,-5.653170661365834,-3.2318972512965622,-0.10347475729392719,-3.5273220017666027,-2.384240399248058,-2.1993984934668984,-1.3677497664464409,g
-5.87739030182697,-5.517270851673557,-3.1206354888077223,-0.45447332688615427,-3.511405112598509,-1.942114155016006,-2.1736655910338936,-1.8743171779641798,g
-6.414217220574814,-5.464651145180325,-3.114823372762451,-0.8175067952745761,-3.449662618807769,-1.3860394799738158,-1.9765312448810017,-2.2614769845115625,g
-7.0880600081244065,-5.449239137949709,-3.227033464361527,-1.1693199292404375,-3.364124839721599,-0.7752739463229597,-1.7026120532140632,-2.541495985672435,g
-7.807937636881957,-5.360819995298178,-3.350925706447717,-1.435751403630337,-3.189194233400242,-0.09599116088074222,-1.34859859696821,-2.6254229578844237,g
-8.400297540909033,-5.106402958242241,-3.329953358287819,-1.5263164207793154,-2.8164474763674825,0.7030904592671205,-0.8271594152284919,-2.377909462037697,g
-8.714463613888654,-4.674916381894875,-3.0902396898037927,-1.408312062951816,-2.2048362380227924,1.610744559022363,-0.091279524915758,-1.7625801077239767,g
-8.756820576164078,-4.1899262501892585,-2.7249968124563115,-1.157410839166546,-1.4492576376770114,2.5180050065890383,0.785501577149786,-0.9079599342327882,g
-8.692376545785597,-3.867895697170938,-2.427183334335222,-0.9059675685618138,-0.7287666728352213,3.2840696695233076,1.6487875361032267,-0.021253459814594856,g
-8.66265884072568,-3.837495323564584,-2.310809711192131,-0.7118289022327952,-0.17902485041201327,3.812757124482925,2.3533820369609195,0.7495327268796965,g
-8.617231051058864,-3.9937517377481426,-2.298050082780599,-0.4881536877990468,0.18870011828849895,4.068817680344661,2.8224333337531617,1.378805757592152,g
-8.363728511109668,-4.093172037588644,-2.191661778082173,-0.08453307000586005,0.45625510810273584,4.059987504060638,3.066022979086088,1.927711988728592,g
-7.76242485342902,-3.9960549833470864,-1.8497180817336638,0.5711281889734685,0.7057228135436392,3.8243151431573645,3.163566121987477,2.459130575753085,g
-6.834236089701442,-3.758010067274354,-1.282502128059247,1.426979954735131,0.9596366949136325,3.4157909567854423,3.202096961999397,2.964185156593091,g
-5.720264361401981,-3.4919570959247226,-0.6048430751791755,2.380064552065595,1.1927075141705523,2.885494408737891,3.209566594045989,3.358470049975241,g
-4.615477764391858,-3.2254409376400517,0.06904446499421497,3.35526648901718,1.378471415173459,2.283009949237376,3.154659313002756,3.564317551475856,g
-3.7333317846491525,-2.919201360017603,0.6840404706287185,4.313223857868001,1.5139008544069958,1.6698840602789307,3.006938628937169,3.598580915928345,g
-3.2420854060773765,-2.5546043887635577,1.2328954889342942,5.21730416475819,1.6002872396263483,1.1000095272559804,2.7675429517782817,3.5530299256057156,g
-3.183268550009873,-2.1628765989068612,1.7088782615106122,6.010992074649512,1.609159560969847,0.5756957894090314,2.436803182540012,3.476829924837182,g
-3.475273307168959,-1.8181419485350283,2.067900590386677,6.617571348465496,1.4837454841832625,0.053847328206692205,1.9936474723099011,3.3059595591185187,g
-4.007178504400409,-1.6290631419400043,2.240875772870036,6.965350338922313,1.1918937847788327,-0.4817858918714452,1.4361679096433122,2.9334972301087685,g
-4.703503767085664,-1.6773661423568988,2.1939244562471445,7.03572287136264,0.7795139242512743,-0.9772531291886712,0.8175313086567556,2.337835138546807,g
-5.516494093200113,-1.9236874929450594,1.965776741218929,6.885734087429126,0.3532820632312496,-1.364628079385671,0.20956077740290735,1.6253617844783335,g
-6.428390404997491,-2.229187257052025,1.6190922526452318,6.594628065759975,-0.00880894623548476,-1.649625783793022,-0.3579597067291384,0.9597802319306179,g
-7.481715923168646,-2.522443668004486,1.1525638486491303,6.180707891249607,-0.33233850660513437,-1.9204251256783575,-0.899562876202317,0.461031686700428,g
-8.739452447540087,-2.901983394483415,0.489373064034644,5.599018990541675,-0.72448632953675,-2.277258404838191,-1.4305196889444536,0.14743344123372498,g
-10.168096522132545,-3.517873101107873,-0.4295649184792369,4.835187305420651,-1.2708355124675443,-2.766072940771801,-1.9431557460535867,-0.05512810622978925,g
-11.600769138237132,-4.382836396466159,-1.552005021024589,3.9756102150454367,-1.9463091054699695,-3.3581268276742264,-2.4086741123658566,-0.23727236650288158,g
-12.862320230468473,-5.350529895963077,-2.7236588666636727,3.160824862918473,-2.6177551870402778,-3.9637895102216385,-2.7748798639720276,-0.4093475559309397,g
-13.911363044920975,-6.247976049072072,-3.783826048874841,2.4789166786405756,-3.133801804244532,-4.481196825128866,-2.9812835733484553,-0.48178513115166305,g
-14.83774015347563,-6.977135480377437,-4.656745141713353,1.914348244646526,-3.4310030400792186,-4.872691232095849,-3.019206224158352,-0.3647113875070027,g
-15.761055326659136,-7.528646006439051,-5.380727358581791,1.380037874198241,-3.5770336743560214,-5.2016279446495135,-2.978575304210697,-0.08512166305600273,g
-17.86899790787736,-8.480941753200403,-6.845132058056878,0.06262090856543576,-3.9942238551851132,-6.038935376209622,-3.193371931797921,0.3681106074097185,g
-19.001891055281366,-9.135266878222392,-7.731612936476236,-0.7526509443099569,-4.445122339704016,-6.58160747806143,-3.5665888902818326,0.2835817927931247,g
-19.986652718400336,-9.90587365922198,-8.662681793793354,-1.5957314517325036,-5.048954447959134,-7.176574289806327,-4.101065116905873,-0.0922407397797647,g
-19.986652718400336,-9.90587365922198,-8.662681793793352,-1.5957314517325039,-5.048954447959134,-7.176574289806327,-4.101065116905873,-0.09224073977976469,g
-20.6411125560116,-10.64577131983911,-9.528825117601226,-2.4130758656244624,-5.761887954016126,-7.831692410474465,-4.7741871460455005,-0.7966452395148902,g
-20.898900768274096,-11.246643089246387,-10.256545207407825,-3.212451923841917,-6.555074327304527,-8.55582039672069,-5.556634675146495,-1.8472792221621535,g
-20.819973834282543,-11.70018480864547,-10.83128862292898,-4.02806722255144,-7.408441227747785,-9.32205518029959,-6.409453924953152,-3.219288696078329,g
-20.50344030583411,-12.026008849134843,-11.272145035358243,-4.850682865184707,-8.29222332430457,-10.076848478208042,-7.305903321038666,-4.837576553091575,g
-20.032680675513873,-12.21941447690442,-11.608182863888524,-5.61476248899581,-9.162392477597262,-10.762216829578046,-8.228642814206138,-6.571356043438001,g
-19.480349595336712,-12.289982975014713,-11.86572807779147,-6.249692924075266,-9.96531411811332,-11.319148759489833,-9.127436174966526,-8.233482648058459,g
-18.89061733824712,-12.27537966892248,-12.042790550205243,-6.7187249667268905,-10.639151855326123,-11.697588862680133,-9.903202745615207,-9.625227498048744,g
-18.241325226373323,-12.17442129886384,-12.086442162538566,-7.010596386913704,-11.116522845476776,-11.882969631988283,-10.455939808030703,-10.620113394633165,g
-17.48403404609361,-11.922750976767816,-11.919175430864378,-7.125651793409945,-11.338060952875761,-11.893859993595985,-10.738522190689695,-11.204752721314936,g
-16.648152440277933,-11.478511544236689,-11.505011466475118,-7.080584429938756,-11.27110377123348,-11.736178689976308,-10.757489330172383,-11.430599960026566,g
-15.858494323860151,-10.885735536420603,-10.884254696540754,-6.899660515684758,-10.918575435353326,-11.377664151756246,-10.544887824095952,-11.33959172454447,g
-15.218984520462268,-10.212578808073982,-10.140612780877245,-6.584401017758355,-10.313038242672272,-10.78552263804378,-10.143069283932878,-10.942015874066175,g
-14.711136641177124,-9.476024653021955,-9.345033940186958,-6.1110255908181905,-9.503243749661525,-9.97391084699829,-9.589932845553946,-10.237874380872295,g
-14.226972272081051,-8.678178031184668,-8.531531349572958,-5.475690148817963,-8.543681203612707,-9.000561126753158,-8.894519406647323,-9.23717495693727,g
-13.665551463385379,-7.874316697222504,-7.709049065606675,-4.731796983889621,-7.496269242706975,-7.941772505852927,-8.049565594686422,-7.985622335431262,g
-12.981558376808781,-7.146090534069256,-6.888683705071751,-3.972791294616104,-6.44523928113386,-6.897639150903265,-7.100745392208028,-6.609584923407134,g
-12.194201181966568,-6.536332068288493,-6.11363561341841,-3.2900966388164656,-5.506706222850833,-5.999176640628114,-6.190315278825416,-5.326091205001854,g
-11.391853646310626,-6.063236558227553,-5.467991560063378,-2.7491674373097386,-4.804735313162872,-5.363882176880447,-5.493945823295579,-4.3600073510346,g
-10.687758305390995,-5.765209912956007,-5.033636736697841,-2.374399640986222,-4.413945305467651,-5.033049885308187,-5.10558862673927,-3.8195490765177196,g
-10.11754043922979,-5.664875643566598,-4.81841630843148,-2.1315042882733164,-4.3143483898518475,-4.969038066281344,-4.996388784362538,-3.6471370951242292,g
-9.600212376297875,-5.71001169316195,-4.7370323803055765,-1.9445853619925313,-4.407294501590454,-5.108760094742441,-5.073399407882018,-3.6824435422774355,g
-9.044354525304072,-5.821956193752145,-4.682010347652118,-1.7655621432394295,-4.585793796620025,-5.399235784436194,-5.252089685930473,-3.7675328631467573,g
-8.47558866638908,-5.996612294736205,-4.612929585854464,-1.6284414697138536,-4.798873720924393,-5.792609331112533,-5.483233468276677,-3.8228121333522838,g
-8.018920253169389,-6.2915167655570645,-4.569673218156967,-1.6171462414624191,-5.058408864322682,-6.243948522697356,-5.751050770426422,-3.8735782547816826,g
-7.774142468966739,-6.71351594531053,-4.609114259375858,-1.7812728352692055,-5.391768584744037,-6.721041950361043,-6.057364822710662,-4.015898718473134,g
-7.749610898286152,-7.182909720567144,-4.738692909562202,-2.0915461622236657,-5.784375765823883,-7.187656726273156,-6.382436888557355,-4.320831126612222,g
-7.892009950412467,-7.610313623879307,-4.894924620632274,-2.458463297503841,-6.156478577866734,-7.568533053448999,-6.654055206840795,-4.742755819918694,g
-8.119195167920159,-7.943062314281977,-4.966787550117525,-2.77042085072861,-6.39389227282776,-7.760519803548879,-6.782266312763579,-5.128818266972663,g
-8.332278569696905,-8.134399476219903,-4.858561586063977,-2.93604175569841,-6.418749360722908,-7.69999443877425,-6.738618653006286,-5.332699491790521,g
-8.464047249030653,-8.15361226122141,-4.573413775184324,-2.9445734111357504,-6.253539247963924,-7.4109995742475,-6.583473883769517,-5.323087251607027,g
-8.535547346305245,-8.063272659056476,-4.251444936419495,-2.906569414139452,-6.025867304478052,-6.9847647496567,-6.408609872366391,-5.198478591161907,g
-8.623125278027164,-8.017739815481358,-4.100623811181187,-3.0053713186338227,-5.901408812177917,-6.5311366928885075,-6.2745892578264675,-5.12645032973027,g
-8.759251197487988,-8.131662055538786,-4.2577402874733625,-3.3722472902168255,-5.988714142545401,-6.148417799092341,-6.207212964431422,-5.260570849675797,g
-8.9025806593798,-8.38267742368887,-4.694657313059561,-3.989878151135435,-6.278416426802809,-5.89754737117788,-6.215021284319058,-5.653340397542111,g
-9.001205001385316,-8.666123954262194,-5.23906004058941,-4.697497373466576,-6.651311325704602,-5.770562614695419,-6.2786059925696,-6.197178580802777,g
-9.026851834512932,-8.89366945054081,-5.678301466480147,-5.276793599368739,-6.949811060867506,-5.69879511637217,-6.342877200136003,-6.667341202495862,g
-8.93693951773388,-9.012354814797174,-5.876996930831416,-5.567257265501864,-7.075911149335065,-5.621963292301067,-6.352970602680469,-6.877927339726156,g
-8.673114453084837,-8.99961663765578,-5.85229807608887,-5.568365939411668,-7.054478652197443,-5.547830904334017,-6.29373819080493,-6.824085629687315,g
-8.240317067313361,-8.903565771669724,-5.756276485646489,-5.459007660889599,-7.005750356510523,-5.530109666660595,-6.17654939899972,-6.667112590570272,g
-7.743317052063489,-8.840020462348248,-5.749854827832705,-5.472107842020604,-7.0347412356700065,-5.600658135100694,-6.002143288353859,-6.5756882483428765,g
-7.302027681119924,-8.877780545409864,-5.8540080571908835,-5.691144424722352,-7.128105521994397,-5.744566540295426,-5.763234408457875,-6.573708336193985,g
-6.957426136749495,-8.951061587548823,-5.922356676745923,-5.957170848504124,-7.156464490002206,-5.930882798347697,-5.475701060153265,-6.514721025363755,g
-6.459703241608137,-8.850282813093255,-5.375587936901075,-5.636459829566403,-6.60820272000924,-6.3867122803676235,-4.926177915436862,-5.475546467443478,g
-6.257474971107744,-8.769329279384124,-4.864923738174719,-4.965875893238751,-6.165024664594556,-6.698673713248027,-4.758196667243906,-4.484160600915638,g
-6.0502946477123185,-8.810291666463774,-4.477882176524664,-4.2549285656868845,-5.872824940033537,-7.143407645300989,-4.739718628436654,-3.5010456029407484,g
-6.0502946477123185,-8.810291666463774,-4.477882176524664,-4.2549285656868845,-5.872824940033537,-7.143407645300989,-4.739718628436654,-3.5010456029407484,g
-5.846790926159414,-9.026177212801018,-4.392888874143225,-3.8053300250287685,-5.882041339933757,-7.7717059299572835,-4.923285081771409,-2.812356555889413,g
-5.724867622413596,-9.439737324534832,-4.641360923015098,-3.7798186014002026,-6.189299348025047,-8.568269352252155,-5.309585355715037,-2.5083402526307568,g
-5.755457415316117,-10.028221578526074,-5.10406797285392,-4.117214460378518,-6.656181005069136,-9.452096678774055,-5.84863412046442,-2.464124309497677,g
-5.886134157469755,-10.662259192737316,-5.5859730556985365,-4.583421248625141,-7.109656299803845,-10.320988343928091,-6.477377925312743,-2.4934133370199714,g
-5.93013957093883,-11.126877782105728,-5.918354400882148,-4.93254420788306,-7.434476266704405,-11.070209877247725,-7.124662012775818,-2.499281568755322,g
-5.6566613350141335,-11.23429166275049,-6.01158852060115,-5.051692004504666,-7.588184146596871,-11.576913893201247,-7.68167904082255,-2.4940691508375217,g
-4.86304630088537,-10.886783795642062,-5.829585584071632,-4.97434057707938,-7.555265251912731,-11.71842066615489,-8.01695962392159,-2.530975011194116,g
-3.4078095858553668,-10.047571029126553,-5.347859025233754,-4.788506916797835,-7.3124685881545615,-11.439257426529597,-8.054526742694783,-2.6466682370105388,g
-1.2717724036624332,-8.732598164037288,-4.565624220892088,-4.557851107328416,-6.8423911313980925,-10.783441595476296,-7.823151047862348,-2.8406524134271383,g
1.391300997525337,-7.048431126743898,-3.544573089641593,-4.304669088438677,-6.159908271280469,-9.837021051566706,-7.409261749409088,-3.0705966676977385,g
4.335041675870929,-5.150133847463456,-2.389963070155354,-4.006932811460556,-5.300269532172221,-8.641311993741818,-6.866910750724484,-3.261119276643087,g
5.241180957986669,-3.1023874048954077,-1.1680863010640006,-3.5863389253270497,-4.272282927264447,-7.163142636315247,-6.171795046406853,-3.320799530998945,g
6.09932200944922,-0.8287141066202661,0.14809876911368142,-2.9333741247591485,-3.030593773842903,-5.330550409535034,-5.236367187138686,-3.14364811760076,g
6.904684964423451,1.7566426901353118,1.6421116910734324,-1.9833323113105563,-1.5074696351102415,-3.096760139977738,-3.963547108458156,-2.608329228789505,g
7.589168393079414,4.60692937720769,3.369109971183034,-0.7729492437456355,0.31393837874653185,-0.5097754730072036,-2.327115722934117,-1.6278584979374522,g
8.031161020389643,5.697714646202611,5.303138143357517,0.5826602512583265,2.34602313869277,2.248855141920456,-0.43686219232926077,-0.2378207556004069,g
8.08993627329574,6.461382745924693,7.346157762609304,1.9641157863282654,4.41505030084356,3.3337786504871785,1.49221532785619,1.3837022966770416,g
7.643417395041358,6.864084887936831,9.382867699437224,3.310000918379668,6.348013616169907,4.10888554955508,3.2726835509987375,3.022034704739106,g
6.644951001743856,6.932531602317897,9.339668076788358,4.6419298140485115,8.063205959825192,4.607468729764294,4.85177656782921,4.558126359379961,g
5.169571045898668,6.755700492282179,9.140776763801373,6.047041121899608,9.589587945426763,6.3485688450749596,6.276361597193029,5.990728974103262,g
3.3750265859618325,6.443593757386826,8.902666157568495,7.610698970797604,11.001921887785388,7.836444379194026,7.5696822371769255,7.352426007255607,g
3.54091880312914,6.032929843812492,8.679371252036917,9.334089085107472,12.335404014501387,9.01808062832867,8.669449476059143,8.6334530085275,g
3.6884309435485334,5.439488538140742,8.415130047557392,11.11657849627439,13.55399329478648,9.796524776302903,9.476000202314662,9.773644867181341,g
3.818153336336615,4.530507637684669,7.981989308848805,11.057181576792377,14.586260092814404,10.111346279825916,9.93036364871385,10.691909159866235,g
3.930676310609988,3.234905623481082,7.261314064833644,10.763580157841307,15.385588661426192,9.990146330357437,10.051356441072286,11.325266208044813,g
4.026590195485257,3.437847521565459,6.198969826719261,10.246968148482509,15.968985004384683,9.563538327777685,9.932294077090493,11.676229346925691,g
4.106485320079024,3.611759812151334,4.809906579727569,9.551397188266282,16.41720160177168,10.619457708217835,9.707397929799331,11.835691261293805,g
4.170952013507893,3.7578151508662048,3.1536335811903746,8.712010624105108,15.041067767934692,11.786308196625495,9.490639148636678,11.938766579299095,g
4.220580604888468,3.8771861933375704,3.3149324409155954,7.736317425234821,13.655151931974766,13.091967999756008,9.33191985392398,12.087865717345363,g
4.255961423337353,3.9710455951929284,3.4592440802698254,6.6084383582669,12.300315961965449,13.102808382029462,9.242613026441703,12.325476011855951,g
4.27768479797115,4.040566012059778,3.58627968794112,5.3083737742628845,10.976917003402814,11.792641692826633,9.250773558834169,12.661986475852371,g
4.286341057906464,4.086920099565617,3.6957504526175304,3.834038562362994,9.65967117704752,10.62504175918294,9.38911182177856,13.082133677880638,g
4.2825205322598965,4.111280513337943,3.787367562987111,2.2058659973606494,8.30680652892017,9.59103196411114,9.616844715109064,13.508303315661342,g
4.266813550148052,4.114819909004253,3.8608422077379125,2.2215793274154714,8.556249675999315,8.638702883363656,9.793752995298226,13.795887678626901,g
4.2398104406875365,4.098710942192048,3.915885575557989,2.217976188670895,8.565060514244056,7.695132338084884,9.767660204797206,13.803438576742058,g
4.2021015329949485,4.064126268528825,3.9522088551353933,2.195364101162274,8.32285673120133,8.055730970013132,9.48341401613109,13.468981909684498,g
4.154277156186895,4.012238543642082,3.969523235158179,3.787659930417034,7.8496076753848785,8.090013854057478,9.000635005228776,12.8157681188711,g
4.096927639379979,3.9442204231593174,3.967539904314397,5.247174826725539,8.982701784587228,7.8117246172095545,8.428937253917807,11.907727730363819,g
4.0306433116908025,3.8612445627080296,3.945970051292101,6.616761777926165,10.045210527190282,7.298433187045788,7.859730947803189,10.816283485784734,g
3.956014502235971,3.7644836179157166,3.9045248647793445,7.949214987758748,11.091423285249483,6.654991877483065,7.330702659208301,9.608985349448677,g
3.8736315401320867,3.655110244409877,3.84291553346418,9.29143445602207,12.175186158202774,7.514008277164857,6.824209657069434,8.344547083273827,g
3.7840847544957525,3.5342970978180084,3.7608532460346593,10.67664408686763,13.344075716746833,8.419289763447567,6.313204236909013,7.088016676468681,g
3.585861029092153,3.2630421078861778,3.5342145575847637,13.555710470742406,14.319786770062624,10.113018771569433,5.4929430855777595,5.065099072516729,g
3.478364747558094,3.1149455758012126,3.3890605339404933,14.955397363467876,14.165892311978666,10.750037962111266,5.370413295452109,4.554026668584305,g
3.366065958958,2.9600998931402116,3.22229830893408,16.251304332168907,14.052086174915479,9.780194183267223,5.408002327169723,4.408117233647192,g
3.366065958957999,2.9600998931402116,3.22229830893408,16.25130433216891,14.052086174915479,9.780194183267223,5.408002327169724,4.408117233647192,g
3.2495549924084735,2.799677715530673,4.836186791675013,15.771174688964129,13.858551669007687,8.734612895381382,5.434893078463459,4.52785251542333,g
3.1294221770261195,2.6348516986000954,6.160836350805306,15.24846040314308,13.514451106882902,7.612300802517359,5.309861517801261,4.8158248894560645,g
3.006257841927541,3.986639828719216,7.257275766618062,14.656944758707947,13.03413871175022,6.490527457087905,5.0305764417411325,5.2392963628883304,g
4.948602778401241,5.22134267939442,8.234161625221889,13.988086041461568,12.495711803704419,5.497174295257634,4.715107455221751,5.8068388283873436,g
6.7693796473487655,6.50550136402328,9.182939996900597,13.240515146265304,11.97241606583281,4.7560649378579445,4.501823525944994,6.510028791976661,g
8.454200246814095,7.919062031638087,10.136786853998363,12.40450565809284,11.477838331871887,4.351528931545318,4.456339580052838,7.287161941921079,g
9.974705748070862,9.446767703803443,11.091914725337036,11.491274249145775,10.97667597670722,4.315976526326301,4.536189232631599,8.020852348613346,g
11.368518708655994,11.059954302810272,12.060503296996886,10.57543812928355,10.450734294812321,4.6461067533093905,4.640136864170865,8.57644815376484,g
12.743604099363028,12.766697541946264,13.089171818145925,9.774341933764344,9.959376011809272,5.35386254304243,4.727571415229724,8.87932371996439,g
14.200215309439702,12.749756186829309,14.226652441063617,9.169626056693286,9.637497155400451,6.498644823012429,4.90180263580292,8.966577063175098,g
15.773009370355302,12.761378006304675,13.685279782445997,8.755400928484022,9.62162651206809,6.459801406232236,5.33826039703049,8.93282036180561,g
17.45007396956594,12.801424128824411,13.515994859988401,8.454287621658818,9.952316865209646,6.702832561677657,6.097123060068807,8.802735132478254,g
19.213709286333955,11.348512040549766,13.63097784450645,8.16540837673938,10.530653408655214,7.047983536609047,7.015340438956345,8.470871025344639,g
18.981278069402634,10.034578328958792,13.909311003301147,7.812459152881158,11.173977791749861,7.254685309302419,7.8001710712561945,7.782274889064022,g
18.928078384683776,8.689920730090796,14.26949431969743,7.388326361286173,11.731041709086986,8.611858915979374,8.227091433674323,6.666272478894163,g
19.068517541460015,7.230033632802813,14.699352847397483,6.963608537470729,12.156931059355765,9.369788882599938,8.258378330687913,5.196851169386937,g
19.426125034029734,5.664216241872016,15.201272838032825,6.616217969690814,12.483750347721797,9.545878801597375,8.013142806042477,3.5569932374458695,g
19.90331226203477,4.013776549801699,15.703564517151431,6.327931920192489,12.723539273249228,9.164465343494387,7.6481696603495575,1.9613427662377205,g
20.264756753074074,4.004738805749815,16.04511942768181,5.967646234067957,12.80091543882213,8.193680163129445,7.236226527078879,0.5780788665193946,g
20.285613498482938,5.3850058068772,16.06232469782949,5.399497575370726,12.579057024806252,6.562314817573435,6.717588496563448,-0.5198882221986054,g
19.89109647271764,6.341649696571972,15.688690027645913,4.606949034986899,11.957677375319351,5.927990509651115,5.976930622765091,-1.3329017313552023,g
19.13840927939443,6.956056501254034,14.97289856862595,3.7092427749039794,10.96141385434819,4.910401064213877,5.000481187416292,-1.853161680801719,g
18.11005416107897,7.379423749029057,14.015237762541423,2.867014786035462,9.741730454643733,3.7930774377741754,3.9584253415667434,-2.022052119334416,g
16.853189177626028,7.746025927352605,12.884869790358895,2.1635873507357486,8.482823138132376,2.8968672350386697,3.109077218678629,-1.792462895247412,g
15.373689738564138,8.130489956657144,11.573586140111917,1.5416551919499923,7.2886492644058,0.9572615875444571,2.6191818122800714,-1.2179942147993803,g
13.645605846577832,8.537712412267036,10.02193506313992,0.8407046752858637,6.156065778603559,-0.2965885430497526,2.4871893610131317,-0.44250397242711237,g
11.670034985946057,8.931312714466621,8.22285674843027,-0.06393979858626268,5.063666963054956,-0.8940026244688328,2.6219199976152274,0.405977793600254,g
9.58442734023287,9.315216048410345,6.333111463929204,-1.1103220216071505,4.0897813432801495,-0.825258690156125,2.962347130442655,1.292495669519122,g
7.685760688231303,8.05670728875143,4.67099128260111,-2.0377269846531347,3.437341481818726,-0.0055858241930516585,3.5261100862610326,2.2506642223494366,g
6.269834543669332,7.379571831340803,3.5580342498221107,-2.5626753281121912,3.328774672809889,0.10286991532867021,4.375711829357983,3.3045501543743745,g
5.425766957391469,7.41387158520637,3.1215403865300666,-2.5952712510214404,3.8528995563568906,0.7364361273421564,5.539049317212446,4.411358912553184,g
5.007722435398212,7.995107392443086,3.227094793317387,-2.2936722869951565,4.88629096970285,1.7555583198671194,6.9284134909449815,5.454378652705776,g
4.791043700647502,8.811922574871932,3.590753580061405,-1.920014684567077,6.150917123804975,2.876629802174296,8.330183216991259,6.295410587977878,g
4.626533702469109,9.606199935985428,3.9717230904659075,-1.6435840640142174,7.368912063602882,3.7809377843332634,9.514001127668172,6.873836323170518,g
4.483539353229581,10.257744471562376,4.308361937539254,-1.4469819963619972,8.406263520591956,4.254906017788445,10.384158672486896,7.272671586576105,g
4.422832655533576,10.780981516165317,4.716646564995288,-1.1806050630100358,9.303562833666401,4.244768464667283,11.0181788889459,7.659356636027735,g
4.5317606430692035,11.28065181135975,5.352232398365169,-0.7161815256819889,10.17640808165486,5.304219495682169,11.553661628774375,8.134371738781807,g
4.813207617045191,11.836927121122018,6.228172318464542,-0.09549708648817021,11.073916438377708,5.942279945214237,12.059947193514809,8.645671331522648,g
5.10678709109131,12.377158334677784,7.139158209854868,0.44916725095064775,11.917509548811475,6.236696352176037,12.527217773918071,9.063207531728274,g
5.165779785530597,12.702236351773204,7.776934494639346,0.6468552443455152,12.56468527779165,6.245676027619995,11.569065998874525,9.325354543798408,g
4.845148135447709,12.679399497807264,7.9455562597287095,0.3904019872405418,12.927938868665095,6.24591486061046,10.410016034489768,9.50613751247471,g
4.194455573799688,12.367911654139247,7.683364494174116,-0.20090974186674188,13.039566026625877,6.244269853794092,9.133559089715613,9.760190099840546,g
2.494426804791541,11.411918140326879,6.690904769482851,-1.5706109324260111,12.949919117804587,6.238435730567139,6.735125951343553,10.840328139799874,g
1.6484765628527935,10.81366104261065,6.243778895817194,-2.1685771068952002,12.849340858499223,6.223640018689514,5.748007672246203,11.478869674879084,g
0.8826799203889026,10.087850376216064,5.797345282080195,-2.7474216896164387,12.623625998110878,7.413331328474635,4.828377876412384,11.874170642230428,g
0.8826799203889026,10.087850376216064,5.797345282080195,-2.7474216896164387,12.623625998110878,7.413331328474634,4.828377876412385,11.874170642230428,g
0.23470482286397876,9.245584567309253,5.243891427764879,-3.3435728293372557,12.176667918932932,6.695537699666369,4.944424748838054,11.874770472184668,g
-0.26965658958923927,8.345720615100916,4.5413640691921895,-3.9273446959801874,11.502352987234431,5.757806997679062,4.570661628781893,11.542161845110416,g
-0.5842056808496798,7.501531550572278,3.773579041011947,-4.401000145236212,10.71027788520005,4.774717006130969,3.897464287153589,11.084291952127176,g
-0.6440981227059233,6.862688721413309,3.10229892458009,-4.659040238797299,9.95743081437529,5.431800694209331,4.500896052163897,10.670085058902217,g
-0.4383279879571626,6.51835835708567,2.653527848325395,-4.672093399800782,9.351245214900333,6.282598090404475,5.274525954077936,10.305838004952726,g
-0.04827505543692118,6.426132413992617,2.453502244331855,-4.5055444585096645,8.912658073111604,7.272135388332171,6.181119904258455,9.869591209468993,g
0.4365168366652393,6.501059872726446,2.4737688669671223,-4.238960282519985,8.622735142611905,8.328762730149231,7.115311121767631,9.245584186752072,g
1.022166102193197,6.76879655966877,2.714583117807815,-3.876799381413197,8.494708215064518,9.421201044241963,7.997079202255338,8.450545865233343,g
1.7794462278440704,7.359741541207344,3.2192640624339406,-3.3596242412316455,8.594522935334584,10.567568090205178,8.825206326214722,7.674368022173182,g
2.715753150959927,8.338089134622605,4.00803706324607,-2.6592352015775162,8.984533724024768,10.583773952781588,9.66619423796682,7.191308673709576,g
3.718089183350635,9.58903410878326,5.010281685765658,-1.8452801025335883,9.635549091795198,11.081883306011777,9.496289024111954,7.168998300388767,g
4.613968615202802,10.879255525480822,6.0590700922133305,-1.0625511616552432,10.386894833451823,11.868796505920667,9.747072247719512,7.517480320001693,g
5.253774116986973,11.974166835152465,6.948440357501529,-0.4559091085581053,11.003458369489593,12.62177839290369,10.106161356555567,7.931259331178718,g
5.562398884907086,12.703979964740963,7.52068346689355,-0.09925090292364244,11.298018105722361,13.082683551304573,10.258917609895454,8.102676112767323,g
5.584108550880008,13.011416885093137,7.737767551387646,0.040217725069277524,11.224006178257454,13.1810876278013,10.07391717302551,7.912118704451814,g
5.486109009721467,12.987983355607085,7.684017744691725,0.07539395038438979,10.867057412636557,12.994150749974612,9.616401307606674,7.447278010090753,g
5.452195119697494,12.81067406867389,7.488527193605783,0.10916409764072296,10.35778692755549,12.632811522544038,9.04012415517426,6.891079751979173,g
5.535539126289839,12.592220950999916,7.235947310226107,0.15330499925953128,9.793344631419998,12.17734463844118,8.485515394031232,6.402417597862458,g
5.639729882131151,12.317070855407804,6.948309267670001,0.14512597197462518,9.223429347331926,11.670366906074026,8.029235945118598,6.05041872237925,g
5.647987091375597,11.935214351225483,6.630595154995928,0.04244296617956389,8.67681372351827,11.116716021948001,7.66749172756101,5.803913853207708,g
5.530546348753864,11.456750760347266,6.301959746775983,-0.12034095228274921,8.175653279134227,10.492342132818681,7.338608017003848,5.578341481288049,g
5.328150403936606,10.92084163698843,5.983957472375389,-0.2723297105898476,7.726962311016516,9.78706612631718,6.987837549372578,5.318340540933692,g
5.1026529316408205,10.344546132123611,5.695848320044314,-0.37122072820773083,7.322326563667209,9.049434026154787,6.621549311035902,5.045439730345179,g
4.938023447572554,9.771724658504763,5.481647038805734,-0.41461460893524,6.962508404885492,8.382441710650507,6.300612955286294,4.828536946799792,g
4.92349731408528,9.321082918095291,5.414669656600132,-0.41686832256618656,6.681100228142768,7.898840356959601,6.099118664455124,4.726036819030883,g
5.065556565730296,9.095047526179899,5.538145392129191,-0.4037713167321996,6.5303562894160905,7.676715896279046,6.076372030533259,4.7632482518115955,g
5.235835871069479,9.046767160799652,5.7945378514145505,-0.41720376374630364,6.526556938444893,7.720038417746669,6.250272721537036,4.930782160709383,g
5.25671788205599,8.999525216495439,6.02657158129396,-0.4999018247111941,6.597365987910996,7.924230289794849,6.551864336864375,5.165544848772713,g
5.036660178694186,8.798169094939222,6.059977008945615,-0.6770508841852889,6.588828604364816,8.097561299208998,6.816848193855857,5.347296883211091,g
4.609018227774855,8.408479327455234,5.807735547335687,-0.9585773030783148,6.352283228570262,8.07205161248673,6.875645220996633,5.36268467373103,g
4.0815760252175455,7.904336512504374,5.330516120719029,-1.3376259934746395,5.856136133125745,7.821745800818017,6.679671160517854,5.190394346645493,g
3.5887268442667817,7.422139623020703,4.809015210651414,-1.7663442697075578,5.220804539063066,7.459897752940992,6.3273375007085395,4.904099348096657,g
3.2439216912673556,7.095715441613476,4.420843945515678,-2.154554782838951,4.625917421290994,7.111142332408147,5.960625508315253,4.588073972621971,g
3.054795128839563,6.9371562401384965,4.195544162336642,-2.428854797538734,4.159305761609485,6.79287296385125,5.645610291225761,4.271591235230861,g
2.881587273198428,6.766005027265825,3.9797515435588897,-2.5951797404377297,3.7417475093542087,6.4097610067382105,5.337596445761512,3.9442383470215474,g
2.540061122305295,6.335573213503845,3.5653296251301483,-2.7241822355214014,3.1921789792313993,5.8347441109862075,4.922208142925674,3.5981826368962784,g
1.96704161147565,5.5689154311302875,2.8674162162146244,-2.8787715563885135,2.3703296377464405,4.999464604290668,4.286218732832003,3.2354153131533634,g
1.265043699030016,4.634367409481792,1.987878089176445,-3.071161802075804,1.2800397284499134,3.954899761867813,3.398074501074864,2.8556196979575508,g
0.6019575300696693,3.783812725669258,1.1277107247352691,-3.276105556432453,0.06808808736835333,2.8771966388665415,2.3599462980367303,2.456308470749148,g
0.10484191797091409,3.166275438702722,0.4503537769654427,-3.456305035017934,-1.0637527485195686,1.990084003734136,1.367643154453325,2.0335199812354086,g
-0.18508805135313167,2.7891680929998466,-0.0012372833649038294,-3.58183516312617,-1.9673258021698026,1.4360602472581532,0.5872147908974595,1.5783838077999603,g
-0.3481643331452947,2.5631474679133106,-0.307883706598005,-3.6623656873863255,-2.608580631535685,1.2013689636247005,0.05881234743643393,1.0997891865996077,g
-1.1842062512325264,1.9732661526614959,-1.0266896374851326,-4.002823071868495,-3.3677139723403022,1.1591085455829844,-0.5615573524031091,0.36476761118769535,g
-2.1874622472220238,1.4576138301798294,-1.5551081853478546,-4.401419016215196,-3.6085450425786805,1.1204767846096488,-0.8250139192134005,0.24730993105018548,g
-3.454696253843641,0.939352898762262,-2.1104256956791048,-4.915187102558682,-3.750913156217829,1.0403285107504678,-1.0768724633213578,0.23489057892492804,g
-3.454696253843641,0.939352898762262,-2.1104256956791043,-4.915187102558682,-3.750913156217828,1.0403285107504678,-1.0768724633213578,0.23489057892492796,g
-4.711786633495867,0.5983842693600863,-2.5807721484533106,-5.439626496198835,-3.7292252641768195,1.0119031733946198,-1.2225384145994185,0.2154028701640931,g
-5.7420484332215,0.511440786301763,-2.8819152090386364,-5.866580235122948,-3.455756656068742,1.1875162881348524,-1.1048675877686487,0.17679498916641484,g
-6.45626937529803,0.6639071020706732,-2.959712113707807,-6.097006580003098,-2.857141468860926,1.6851949199333514,-0.6020246955192213,0.2489546071806475,g
-6.867468327232875,1.0284915930358258,-2.7871809084491352,-6.049933673365974,-1.9258925989365445,2.5030693156010337,0.2787566283838777,0.6099424466953649,g
-7.0476448894488595,1.5661751316202852,-2.3838411378035858,-5.69925580241388,-0.7548037801840302,3.527031897185875,1.4050591405192758,1.3525121764971555,g
-7.064306023884797,2.1952219074993815,-1.8184621312833928,-5.098758832988923,0.4863830179211458,4.617852536672337,2.60703618614923,2.4068989541781702,g
-6.899652067293128,2.8464868132759586,-1.1635576924520001,-4.3529300607340815,1.6266339875928029,5.687297857667124,3.756317111780419,3.5512204158509526,g
-6.446959436891325,3.543309173364456,-0.440339497835234,-3.56134513261931,2.569463926589262,6.718844438601951,4.794265063658934,4.512208707829789,g
-5.625512339437083,4.3614665933178856,0.39152851162283325,-2.783316866544156,3.321993176977365,7.755974824792041,5.7342359366905225,5.120027529032841,g
-4.482942636313713,5.311925628257011,1.3996730098554948,-2.022492491762293,3.9678877579915572,8.867419831158378,6.640774179733334,5.405986934558298,g
-3.158331013318243,6.313827201965626,2.6291089081653944,-1.2261534417739597,4.60249714035233,10.07773611965155,7.565952366764904,5.543089090970588,g
-1.7847709777739866,7.265364663697229,4.04693997103602,-0.333488021861945,5.263352702180483,11.303964008637454,8.482197632844601,5.6796302381867365,g
-0.4806470167987687,8.07349889724429,5.501887848815697,0.6266760439062294,5.8992092075123725,12.374703992896242,9.289272108707346,5.830023571039328,g
0.5998625977988122,8.627546907599832,6.755009732383662,1.4860154402930454,6.405071774083501,13.130473697452572,9.89342445829986,5.907961144645932,g
1.297640476792558,8.838333467007795,7.6013360380993005,2.024536048744818,6.700257932581572,13.511434078973815,10.269941517424808,5.8308891290995275,g
1.5536761119285554,8.736786275584567,7.994508495562234,2.1334189367868603,6.787062330848383,13.568260235590586,10.461495779983387,5.593001138330298,g
1.4391977243177398,8.470436804135616,8.054079744612293,1.8908247094442214,6.746303786048379,13.42390620795931,10.552860087112089,5.280247733107943,g
1.0665611735920266,8.165734937397726,7.944344982541753,1.4824425888368593,6.681450115646565,13.225025103695746,10.651456913630868,5.038198364980636,g
0.4947836389098347,7.831741487589094,7.733910929395482,1.0544657125420485,6.655505879503837,13.077883757382676,10.844381043420034,4.994297071163082,g
-0.29591068617703886,7.4055951917079,7.3426657944047165,0.6181128973779274,6.656451658358331,12.983810181644156,11.132655006868962,5.170635139738202,g
-1.3974968173793885,6.822559845645277,6.597153494828282,0.05166936325997794,6.604711565517745,12.839342034027197,11.41401661680468,5.466502092307346,g
-2.942098924303491,6.011581318886298,5.3519548391798395,-0.8110523152153556,6.396445570538609,12.521255241784363,11.54982248655205,5.733640118551719,g
-4.995452401227903,4.899511361019665,3.6068733354760005,-2.0503233917552945,5.957132689612057,11.976231756185307,11.448279334670662,5.862105121706646,g
-7.432035519765057,3.49129503082533,1.5375461992120019,-3.5791982442130914,5.273095729081812,11.23682015551148,11.091831263448576,5.798222137366202,g
-9.951419273781758,1.915443507813761,-0.5973490439665081,-5.192509714297794,4.390142136651292,10.385360782294743,10.526894087135501,5.521161306458376,g
-12.256448355754593,0.3413342918691197,-2.598963403927815,-6.706563825595867,3.396693492755812,9.523461402566515,9.85694484388915,5.0425618462626165,g
-14.201123711078484,-1.1220383207793778,-4.393138344288414,-8.04933364174033,2.4052199069825697,8.742688680563248,9.214374878819937,4.419924640630799,g
-15.766553976318622,-2.4174199332582402,-5.98009960537359,-9.23149621439632,1.5209907624825512,8.072906166312077,8.683136241140854,3.7325815062901255,g
-16.957973887973445,-3.4928916892597095,-7.358471298008894,-10.277249925869151,0.792030989602897,7.450959163496643,8.232819285300865,3.0288504942143013,g
-17.76769190863024,-4.336091231295743,-8.508893854672957,-11.208124786780632,0.1741334520244636,6.768293103212258,7.746658899450449,2.3008517191514395,g
-18.187359681506905,-5.016141978182171,-9.416267898528172,-12.057519473385478,-0.440880499036367,5.965927172315659,7.122359405172231,1.5033346907031777,g
-18.192094908140103,-5.6024065993386785,-10.067816599579498,-12.84734473604467,-1.1335503449751398,5.0876599488185,6.3509191757328125,0.5920727974972071,g
-17.731858792689202,-6.037987251609988,-10.425942778005602,-13.538874580015266,-1.8656278904589385,4.264580163635894,5.532510911143683,-0.42326429405766486,g
-16.791133305619795,-6.154512654631118,-10.422228672085735,-14.025694328614142,-2.465344668189058,3.670103586045875,4.851330236938841,-1.4203839829308653,g
-15.451334584431176,-5.820216650531387,-9.992844835311583,-14.186537204807795,-2.7168618872459462,3.4568204346965152,4.506251439902556,-2.1700002821968294,g
-13.866579841464567,-5.044135050177325,-9.14094030954841,-13.96026030375728,-2.5112122339207947,3.6608729494830414,4.58486177712754,-2.4669157910574144,g
-12.206968992495396,-3.974057327335307,-8.000743723539115,-13.409085134122723,-1.9606284734207766,4.127492710856151,4.95839447864783,-2.3053379362873527,g
-10.661395326584719,-2.8685092983029996,-6.85201120160683,-12.733440180587483,-1.375708940585227,4.558581578198565,5.325317704973587,-1.9185839418198154,g
-9.439032186881978,-2.0432028992609266,-6.021046205738603,-12.184339809865438,-1.0887735301997339,4.682108367525807,5.4048520908462425,-1.618220528345308,g
-8.664047588513942,-1.7191295832072793,-5.691797842938214,-11.888515210555129,-1.2394985937694671,4.403643688417654,5.1142986642193256,-1.5734539845721922,g
-8.252349127524285,-1.8625694780863569,-5.782292743881576,-11.734344132989824,-1.696026002303563,3.8162708445864886,4.580618665933519,-1.718668052626959,g
-7.965880058154665,-2.2319631805025715,-6.027597312560887,-11.462433196534624,-2.183300628160673,3.0879328045791805,4.0055631974203365,-1.8410519845890074,g
-7.293576313869719,-3.085857693743205,-6.34961870485436,-10.127132637166207,-2.7253672198383754,1.516161379440237,3.0415763025886458,-1.4942580457487071,g
-7.142124712998362,-3.7734042601202473,-6.632286402302137,-9.398444227445243,-3.0417591616659223,0.5153053444586988,2.4258203662515316,-1.2470405135621998,g
-7.347758854947012,-4.820282854665082,-7.256366274196554,-8.956819402761747,-3.6696046262570747,-0.7952654238598427,1.4944474043599079,-1.2808284418824922,g
-7.34775885494701,-4.820282854665082,-7.256366274196554,-8.956819402761749,-3.6696046262570747,-0.7952654238598429,1.4944474043599076,-1.2808284418824922,g
-7.923603221132417,-6.192354516007297,-8.225303278686914,-8.848338665959442,-4.615810585281141,-2.3704890520965387,0.262031542771349,-1.6808438454229317,g
-8.672665856147946,-7.681706989301913,-9.290737240732565,-8.88319713719034,-5.639432597700222,-3.958599463944302,-1.036923852904399,-2.265214256507318,g
-9.23774294911495,-8.947157197806323,-10.062090585155541,-8.74761193903323,-6.380372285390663,-5.235670952826969,-2.0908449052934004,-2.710680506584926,g
-9.290938662010987,-9.650207628128161,-10.231359560130604,-8.20971420184292,-6.574840928193605,-6.001911929871173,-2.706581088909533,-2.7759284888662963,g
-8.76371789491256,-9.666517472966822,-9.762611955919246,-7.281133705852073,-6.205319895576727,-6.273808493150019,-2.8906073090659605,-2.4328461614619235,g
-7.891073961362518,-9.172634390495618,-8.894710094600532,-6.195883959979758,-5.486576079954468,-6.2302714278818545,-2.7931202304699285,-1.8458433705012585,g
-7.00191800577462,-8.479188992250144,-7.9572983143129346,-5.221824699829287,-4.718478126733716,-6.093480738893954,-2.6084946967302622,-1.2688309036001661,g
-6.276275226619982,-7.7883045928589025,-7.165906530487247,-4.484441020587784,-4.123930229862109,-6.022179762885528,-2.4941182563575004,-0.9285838732208601,g
-5.696232035985869,-7.130989424810467,-6.551026903045876,-3.9472086682128533,-3.768619521435731,-6.049543845497878,-2.5122660404996777,-0.9263143967239846,g
-5.150426815774823,-6.469640921182174,-6.02060512795773,-3.5075621134718866,-3.578736176714357,-6.093781717911026,-2.6176668757863193,-1.202703339548857,g
-4.5243613087846395,-5.773146579070977,-5.460419120820868,-3.0815536694327315,-3.4194070957563794,-6.048081922299277,-2.718362546650569,-1.6008967845897957,g
-3.746052361442607,-5.022587410610578,-4.812689362710121,-2.6333873727252555,-3.187133074819493,-5.880678834158543,-2.763196918354669,-1.9784767045877554,g
-2.845172963322276,-4.244521144441168,-4.118648098585647,-2.1821528478456536,-2.871566707141329,-5.651234565057894,-2.7685723694984974,-2.2726264257447086,g
-1.9804636923606143,-3.5501485294012616,-3.501875550745865,-1.791003146208545,-2.5527333463059736,-5.441387880740194,-2.7746600862980557,-2.490288386851304,g
-1.3509167234575459,-3.067153890073972,-3.087688880219617,-1.5244278359785592,-2.338424350340252,-5.2861501390864785,-2.801288262213175,-2.6728429402997333,g
-1.0574842490715395,-2.8162697077127015,-2.923697611407413,-1.4094009501649987,-2.2912105932572424,-5.161777816509206,-2.840025265508676,-2.867436219000518,g
-1.0631598796527166,-2.712014933438465,-2.9762837848542683,-1.4464174210648961,-2.397220147960382,-5.009726226152232,-2.856484190756123,-3.0947466295047903,g
-1.2559069064089623,-2.687965360044673,-3.1870497555492836,-1.6384082292810807,-2.5877710637511555,-4.772837990155607,-2.7982646608580013,-3.3278308276441897,g
-1.50023720993752,-2.7512465546946565,-3.510136994620011,-1.9723843352792159,-2.786885633095719,-4.444844351341032,-2.636799929299753,-3.5208791423119594,g
-1.6580296328484496,-2.900338920056975,-3.9021225723553066,-2.3726642165343135,-2.950496766991031,-4.100453190441302,-2.415818104337552,-3.6655980498863947,g
-1.6508964313866983,-3.065347636334265,-4.305094316882334,-2.7064831978956443,-3.0753683853808838,-3.8481835782137637,-2.2288536533141015,-3.7967396487596616,g
-1.530280081887652,-3.1649261891258584,-4.6494043905497255,-2.852496181572136,-3.1762504578654527,-3.728735929086961,-2.1288004663861777,-3.9344665998617154,g
-1.4297518905352553,-3.164697937251758,-4.8622253983236146,-2.7569757598143836,-3.255465273523703,-3.672809799309268,-2.080714105101733,-4.051282590748594,g
-1.4163674676011537,-3.04985256363281,-4.88103855218178,-2.4357731712447857,-3.2977744981351065,-3.574864943989565,-2.0212294830308557,-4.118300325007057,g
-1.4204038436819977,-2.803955678717723,-4.686981541686349,-1.9536926087823723,-3.2941112601523463,-3.3955432432707786,-1.942777743200476,-4.163004188787061,g
-1.3202300262831794,-2.458016785653661,-4.331288642994044,-1.3999597139403193,-3.259903055513714,-3.1812241930682967,-1.8968828527681487,-4.250481511865727,g
-1.0519489192748912,-2.1010011084649114,-3.9032395106990156,-0.8394372637705342,-3.220337806881433,-3.004867282398685,-1.92975046522586,-4.408693372545421,g
-0.6282734884496213,-1.7834209038920144,-3.4564678810261307,-0.2640210207059215,-3.1810493517004756,-2.9067538480598554,-2.0345343519615615,-4.586857291126348,g
-0.11515694943930277,-1.451997533884787,-2.981564495210402,0.38020202026486843,-3.1244678015393763,-2.8713752373836376,-2.152424546186489,-4.683988121943153,g
0.3729163777507195,-1.0362810740870085,-2.462886960977726,1.0882489148004493,-3.040095686316588,-2.8326422572489958,-2.2028370123193346,-4.616395950025618,g
0.7088335545983498,-0.5670184577507529,-1.9489957433160146,1.728299744659034,-2.9567447253018386,-2.7144705029457312,-2.135185125014986,-4.38461574559802,g
0.8408271588718887,-0.1568982372673798,-1.555969306219366,2.097789039243485,-2.9443195107275786,-2.501522501001417,-1.9848735411369625,-4.100468145405516,g
0.822598445685952,0.10057024207697403,-1.4100968218735983,2.048210164209188,-3.0809610507473044,-2.274304423715847,-1.8688340736354696,-3.92765752812148,g
0.7205417918768553,0.15697527031010733,-1.584913703347932,1.5653049522286382,-3.404554044189107,-2.1528414795122846,-1.8891219433127724,-3.9491006023743176,g
0.5217744930373762,-0.022434338238574037,-2.0600898931661815,0.7670775551584089,-3.8783194776003294,-2.202015496678936,-2.033490723366007,-4.079298667363789,g
0.17483651751328322,-0.4287204773272698,-2.7128129132162835,-0.15157270997537092,-4.398571035766186,-2.402148673708149,-2.190635518164428,-4.13033667861517,g
-0.30924829602952547,-0.9551383474492227,-3.364880901525467,-1.0050945652094794,-4.846520231173013,-2.695571179501844,-2.2625149222195162,-3.9765403312938643,g
-0.8480134659836681,-1.4514740122794527,-3.877377451867557,-1.7039550450714471,-5.146279139015343,-3.029061029442515,-2.2429020625541414,-3.64678165730122,g
-1.3630327635297153,-1.8482386344038955,-4.21986497874344,-2.2737044860955526,-5.283592259705059,-3.3556693152927592,-2.1960519357434194,-3.263201273749592,g
-1.8213319829352748,-2.1802108983145128,-4.45090430453797,-2.7765032140900225,-5.280747484301293,-3.6377789567522982,-2.1931396766989315,-2.9139564761270953,g
-2.223761072391224,-2.4948067315404616,-4.640859376432386,-3.216448453564939,-5.163336527786721,-3.8675295161542977,-2.2698981103294136,-2.5852396184696604,g
-2.6051762776154086,-2.7989345746172685,-4.817250307628077,-3.5337303917851712,-4.946787242845112,-4.059684654269141,-2.403901271419512,-2.1895880405292685,g
-3.5102116156017296,-3.341028949681063,-5.009597432690849,-3.643579269556761,-4.231075930789652,-4.2570177269235066,-2.4852834375523596,-1.0134855368684188,g
-3.9472108455351482,-3.463233506251708,-4.8995925364670905,-3.470090900733208,-3.717692958271453,-4.151383931587875,-2.2800947647190872,-0.4158774165485385,g
-4.179758847113861,-3.317905128566661,-4.590605584862421,-3.188365588207288,-3.0919906616266246,-3.869493419747369,-1.9322263171053844,-0.026699149641970697,g
-4.179758847113861,-3.317905128566661,-4.590605584862421,-3.188365588207288,-3.0919906616266246,-3.869493419747369,-1.9322263171053844,-0.026699149641970666,g
-4.158461146440828,-2.8748716191451114,-4.122723071750446,-2.8350600600241394,-2.3807948406951893,-3.445963866409328,-1.5279455554451586,0.11015116440558648,g
-4.015582867640456,-2.290131694413395,-3.6143198663476226,-2.468227880111653,-1.6667152249156196,-2.9740201812763365,-1.1617524545207976,0.08556086229870823,g
-3.9586071568438377,-1.7989789934848424,-3.207382437284817,-2.167918083174832,-1.088057428795691,-2.604235463507088,-0.931885201157139,-0.008702938319904163,g
-4.119912392590623,-1.5570181217963448,-3.004939114509461,-2.021036009340691,-0.7942175515760492,-2.49279178473228,-0.9223638804715495,-0.20377586140409026,g
-4.496948342148414,-1.591857636339338,-3.0351295699766396,-2.08970376370521,-0.8638175683736609,-2.6992479846157176,-1.1440878555938356,-0.6223406995030998,g
-4.971006810489408,-1.8364546083041646,-3.2412333900145662,-2.3593815236645175,-1.241570379621528,-3.137009084378631,-1.5125442328360823,-1.3414321705114305,g
-5.364909147682968,-2.1622209418650655,-3.505766730386763,-2.7131688733554578,-1.763477430524698,-3.6549890299286467,-1.928235858123044,-2.3067110879215726,g
-5.554613018836308,-2.4472638152151154,-3.723040561181181,-2.998164616487439,-2.271956651684676,-4.173519837603234,-2.3836730413807343,-3.362478904758254,g
-5.583996626403718,-2.692150605100911,-3.8774809186239003,-3.1501926298275995,-2.7254106941548275,-4.727897007023235,-2.9652732155669224,-4.33561983259076,g
-5.638747475352495,-3.0354752879682834,-4.040218642121959,-3.2402224148832786,-3.195203147260137,-5.385036919362046,-3.74158005287683,-5.100480247904075,g
-5.856370210217362,-3.5766435446417275,-4.266962278664829,-3.3742373459629666,-3.7476311050471005,-6.129644481838115,-4.653754696094916,-5.5978031574057585,g
-6.16966865574326,-4.191468085472944,-4.49770250582521,-3.552100872971516,-4.323417786268985,-6.818834322268147,-5.501835510606864,-5.803879500955729,g
-6.355652455170444,-4.585912690966409,-4.564326290949756,-3.637092885866956,-4.733550131384236,-7.236456626835863,-6.031449638139376,-5.67875835466755,g
-6.211185266266108,-4.537976036966008,-4.300010482029824,-3.4574218154741194,-4.786989662806969,-7.229053350540627,-6.079822187503756,-5.166269579736627,g
-5.671541643232669,-4.062291813394756,-3.6595369001391007,-2.939201662833491,-4.451072709209356,-6.849086016808977,-5.7053117148334405,-4.277251834467616,g
-4.828894183088495,-3.381240980462362,-2.7724428708322733,-2.1745502470622546,-3.911037618166502,-6.375611475238349,-5.187259783450626,-3.164914359411628,g
-3.905515696373841,-2.801871576558389,-1.8977774402929832,-1.3858213922157947,-3.466362746318697,-6.146147768323862,-4.849484702365824,-2.0742730575651533,g
-3.169992548441621,-2.5796002562230305,-1.2911247408804334,-0.7936373433761584,-3.3322904429819844,-6.321486069073648,-4.83814266462222,-1.1932193041074524,g
-2.781755301127773,-2.7790788467968883,-1.0572111281377954,-0.4646759107800852,-3.5032682717251746,-6.799500457964038,-5.059952314476323,-0.5609947613980916,g
-2.6868472601130664,-3.225621339966472,-1.1056180213432172,-0.2710889591334426,-3.7912476788859664,-7.3470358626156385,-5.325135051835773,-0.1174659935337405,g
-2.7007200145147543,-3.662396606240634,-1.258549139601884,-0.018937090161184632,-4.0003469150137985,-7.80277221686232,-5.531460739387226,0.18698360000685782,g
-2.7000957874944875,-4.002678979251523,-1.4128286056262276,0.37204685938787385,-4.082096617040564,-8.173048176548011,-5.724968657750241,0.33575097526734005,g
-2.7137019463329257,-4.398055973667476,-1.6056107352830302,0.8157794282639677,-4.145490067925826,-8.581449723466061,-6.031736000640843,0.26714126494091806,g
-2.8551004611765363,-5.048698931410012,-1.9429973819446311,1.1666250418653852,-4.333005842138233,-9.14228893720177,-6.547581886838275,-0.06421790449445726,g
-3.225112041946403,-5.992058340425754,-2.4815329460535365,1.3535597514205608,-4.680801385642118,-9.842360720511255,-7.250876118664341,-0.6176673144430576,g
-3.8634751290305838,-7.07756461898695,-3.163184410358731,1.4203224293414964,-5.07615782960274,-10.507900575809566,-7.982559847912857,-1.2350641209785027,g
-4.711340688377364,-8.071350996346998,-3.8336713890816747,1.471725526972238,-5.33653464867624,-10.901369599347955,-8.526348144134232,-1.7034808191717752,g
-5.593245293634764,-8.759268664020283,-4.325088929918582,1.588645687166151,-5.341585578864539,-10.886549749646088,-8.744998437011322,-1.88715432832995,g
-6.301861771204832,-9.040539038252236,-4.561230096469128,1.7613051969087146,-5.116308711446316,-10.515342720965334,-8.652798898093064,-1.8083697378448895,g
-6.754406101069213,-9.010118789017932,-4.6164207292066415,1.8812048173469986,-4.809938732708314,-9.967033544988846,-8.368806307340284,-1.603516638045844,g
-7.047097782542972,-8.921839323481482,-4.669617326798004,1.8136233156815993,-4.601380947281726,-9.431360967028692,-8.033169370917506,-1.4230611825349522,g
-7.335705608976222,-9.00120006579019,-4.8802470915878775,1.5011035993717878,-4.6102370065413565,-9.05129980457998,-7.776400596264294,-1.3785577128585793,g
-7.6869255791473945,-9.289367466933474,-5.286886549521801,1.0009156801799783,-4.863766020096909,-8.918877643532252,-7.712479194827519,-1.5366494838594966,g
-8.047213372173807,-9.6815545981658,-5.797948761242161,0.429882704872972,-5.310415312731477,-9.05777491092984,-7.892390003142675,-1.9036114817038379,g
-8.295868309705206,-10.064035732171785,-6.253111904209176,-0.10398351502263452,-5.848899871243027,-9.403341508751124,-8.255770712855002,-2.4093014499001413,g
-8.294941397791845,-10.363476677843945,-6.500656989484544,-0.514845921034946,-6.36116935348883,-9.836480447385963,-8.66235266720969,-2.941280719968985,g
-7.947632271055913,-10.517432869547159,-6.462149401402252,-0.7281984818507886,-6.749060128738345,-10.251999595388392,-8.984830580272142,-3.4129438643690593,g
-7.279819875360569,-10.489607640933027,-6.163695539538836,-0.7000347058738743,-6.9621780667008055,-10.586611516356687,-9.16803612476891,-3.796478614446989,g
-6.452744694867941,-10.311540889102279,-5.705699656527374,-0.4470395171135374,-7.000945004985295,-10.798196493214224,-9.222244475902627,-4.105559751803282,g
-5.6494524806103525,-10.043149813125002,-5.185195398043936,-0.03934223318243742,-6.897763306440771,-10.853946966290057,-9.194928309143242,-4.37084065324761,g
-4.957212422023401,-9.694139785040544,-4.64475224793793,0.4342476560687464,-6.693113310157232,-10.740670661974574,-9.138879875712403,-4.619208676784529,g
-4.389025083464356,-9.244264030551829,-4.097834182100546,0.8877064914650248,-6.416744619173305,-10.457345880996211,-9.06176801025695,-4.8346084397762095,g
-3.8303350188621366,-8.275824360231496,-3.1961081490096404,1.485052297708289,-5.67914414440592,-9.355339799561431,-8.55086240782541,-4.7975227476463616,g
-3.9788823978357035,-7.938480881273361,-3.0139240671412333,1.610627996257405,-5.239609687198545,-8.60019315406303,-8.024352929514077,-4.411529908899871,g
-4.4038180498298924,-7.7227248262594825,-3.0841972229088217,1.6582730762812843,-4.823035334583127,-7.849409206800646,-7.429770084025579,-3.8776311848584313,g
-4.4038180498298924,-7.7227248262594825,-3.084197222908822,1.6582730762812843,-4.823035334583127,-7.849409206800646,-7.42977008402558,-3.8776311848584313,g
-5.014458634548971,-7.614045943587547,-3.381474358897049,1.636633576473929,-4.5137806620918965,-7.2105090921049895,-6.910628991249263,-3.3604233423141947,g
-5.671735589864012,-7.615122364552614,-3.807705259120881,1.5426342238187183,-4.366893938600841,-6.7230157469902805,-6.53491037860181,-2.9726384842898033,g
-6.203082123596905,-7.697116394305468,-4.227368336367935,1.4047789795787735,-4.378426634245349,-6.378985941800407,-6.278167371428134,-2.7272190346510854,g
-6.478494761877807,-7.794054748420559,-4.541414954744235,1.2856066453897124,-4.50281838171765,-6.169225206947099,-6.076728518193525,-2.5625570489966765,g
-6.495647562550684,-7.8804118498087234,-4.736826938776227,1.2426300349395756,-4.685893579073157,-6.085070057702765,-5.8759359303363805,-2.393619970415469,g
-6.340284009776853,-7.986765928795549,-4.84467395230898,1.3168046916878917,-4.872208085412477,-6.090325715890099,-5.651007027024076,-2.163381599086255,g
-6.044947017676575,-8.09099848581756,-4.845561156455069,1.5600317019881702,-4.991593092115196,-6.115213638193374,-5.410364604378773,-1.877175390210357,g
-5.537406876811226,-8.053974848498044,-4.640057239429031,2.031578703725976,-4.960926937933877,-6.074663099676724,-5.170017600320956,-1.5862750410184656,g
-4.753276738193715,-7.729489672565902,-4.129000296769308,2.7379894419722413,-4.715296439089919,-5.889775293005606,-4.9090621074852585,-1.3270716405362681,g
-3.754632908963623,-7.112198824041565,-3.3188120028925576,3.5906464112035485,-4.246664536399479,-5.522239149014069,-4.570445035604296,-1.0886716156160836,g
-3.541461889634069,-0.808034474602351,0.6675446302801427,-3.8741969500163185,-0.9249328838416933,-2.3713420608724904,-1.61544735801012,-1.303623100454401,g
-2.927289009034088,-0.2697515941564163,1.192171461120823,-3.511222479609329,-0.4524722650883281,-1.7200329412083328,-1.1461251487406825,-1.1155198918715221,g
-2.4346289990199104,0.061821596232708886,1.4368792082422726,-3.3300936102710623,-0.27030902159151987,-1.2813473771170365,-0.8689918596900249,-0.9604805468273518,g
-2.1044407318508327,0.1891363242016065,1.4013405689459515,-3.2993370973688867,-0.35323857359796695,-1.0353274012917482,-0.7961211546318675,-0.8777545689293914,g
-1.9162944269257913,0.1635606317702862,1.1853711452608864,-3.3324659509613355,-0.6107319441798612,-0.8378756536967215,-0.7946185160321695,-0.8656253309356498,g
-1.7966264599670818,0.06526483051986302,0.9046013123284353,-3.368960635217307,-0.9818830707357329,-0.578822396026885,-0.7403888825321228,-0.9326790651266534,g
-1.7113388525635596,-0.06993750009443117,0.5869708015824978,-3.444555263550259,-1.4941872325284833,-0.2982725764052377,-0.652649103275922,-1.1230298222548307,g
-1.7391886142831108,-0.31562312071802046,0.15311001618313722,-3.6726981870080757,-2.2244718000186507,-0.1551206271304717,-0.6774276078012572,-1.4764288402365282,g
-1.9938681957550801,-0.7762413964539296,-0.47951191423724354,-4.123279528788097,-3.1922067740094264,-0.29988293595586496,-0.9590690017815365,-1.9825069448726587,g
-2.475467837095878,-1.4264683726347183,-1.2748559409007725,-4.720115127834584,-4.290989458337604,-0.7672857659943088,-1.5208926662745672,-2.5848202990438987,g
-3.0554592365199924,-2.0990437027338844,-2.0808997306539747,-5.289872510988767,-5.33229033091775,-1.4514419694469525,-2.232208493069307,-3.2136054291822944,g
-4.126391778362635,-3.1530077652449204,-3.276639867557357,-6.057734590511184,-6.763558589769858,-2.7983580407636164,-3.3318218451836232,-4.359137394745846,g
-4.635923631756244,-3.688051100795066,-3.7270008245024235,-6.4227008107438435,-7.209247848702175,-3.350481138988613,-3.6252911987375853,-4.884442954473402,g
-5.154836276658822,-4.314461938402024,-4.192538023996181,-6.879720274177214,-7.589374633546001,-3.9561989728444145,-3.941710524981121,-5.42863213917107,g
-5.154836276658822,-4.314461938402024,-4.192538023996181,-6.879720274177215,-7.589374633546001,-3.956198972844414,-3.9417105249811213,-5.428632139171071,g
-5.656556134642562,-4.9648418953388775,-4.665769580284657,-7.3557433694402095,-7.899462944366735,-4.696994040572743,-4.400367161383029,-5.963482141348997,g
-6.0822391964888265,-5.511854218254556,-5.024637475233844,-7.679634169612783,-8.0312338435037,-5.490058321415514,-4.9206748186245495,-6.3618271064311775,g
-6.339546352260824,-5.817596326650205,-5.099486596756684,-7.692281772659432,-7.8550831076813425,-6.130882629650296,-5.282443295892963,-6.474962646190038,g
-6.34599546462891,-5.790952405180015,-4.792223214618722,-7.359325089511151,-7.3240129030882075,-6.436599789798441,-5.307946508617526,-6.240448583263353,g
-6.114016485347198,-5.468010146447028,-4.1571291856969825,-6.803925828217513,-6.504487007556513,-6.341663529881044,-4.9736452067002155,-5.706831200803124,g
-5.758920640825783,-5.005896148134745,-3.3618967332956275,-6.211246091935403,-5.511142827311634,-5.888846600841804,-4.376406445495075,-4.972274747893053,g
-5.391107119014904,-4.5360350368267675,-2.5599648204053964,-5.675974643344716,-4.420226589186299,-5.169877362031732,-3.6331880374952155,-4.120359978257945,g
-5.034574890748172,-4.044711054849441,-1.801542976266451,-5.145768867000904,-3.2507110398458834,-4.27212516064845,-2.8088802547825127,-3.1948148258202087,g
-4.677961233067143,-3.447139291590703,-1.055668473917429,-4.514625000222773,-2.0158467496337193,-3.2483885697850816,-1.9045965472507382,-2.1950986959375234,g
-4.354898672589535,-2.7446992152152125,-0.2833367699375501,-3.746990694605394,-0.7699011802123159,-2.125505794591132,-0.9043855397452069,-1.0925776250514152,g
-4.121962531518618,-2.043891410562318,0.5238447094351293,-2.9026463338974757,0.40242813583564657,-0.954467292441117,0.15043183991482661,0.11475512524219847,g
-3.994002804685784,-1.4477060455434494,1.3373688936770336,-2.0841700245722126,1.426384798317819,0.1500599615480433,1.1323238313281543,1.342436495149762,g
-3.9630938803502467,-1.0054858673089666,2.078098544657218,-1.4066459760764132,2.25082727294243,1.038319352941419,1.8897807359257843,2.421649575005465,g
