Fz,C3,Cz,C4,Pz,Po7,Oz,Po8,Inst
7.164551980137648,2.022282462990114,6.61670757398051,8.309443145537847,1.4492560772756682,-2.9185723064638633,-3.4651655387574833,2.3935206180340645,g
7.646120860416891,5.05768871010064,7.813964130037382,8.496745044676342,3.9317677249914125,-0.9959149962581948,-1.9238502658313805,4.058152837109793,g
7.681345438081739,7.823126705813529,10.685332834619958,8.388894760316038,6.142342557121425,0.7036616481786151,-0.5762996887841588,5.5623346492772745,g
7.210434363600673,10.261629105243575,13.080336316597046,7.968228391497448,8.057217900238392,2.1494476966188065,0.6430710730683946,6.949280088683301,g
6.170703098061269,12.372815562151965,15.019861528117264,7.224545783110438,9.7018254898021,3.372407477020064,1.800456182991302,8.276783618301113,g
4.50926025978,14.174680875471953,16.584269994269963,6.139122228430539,11.082277082196775,4.414012678190493,2.8833020890989074,9.546805534691748,g
4.792477825739655,15.689370471991069,17.847030226403746,4.693036878032089,12.15565016389914,5.28045746240733,3.788746501173238,10.685071597715982,g
5.02538630650487,16.949741584190413,16.808324654984272,2.891614097149581,12.862753610728253,5.941653031571765,4.393254068467206,11.586541056695776,g
5.210260046689254,16.03779993437536,15.402337740927436,2.9308838783530446,13.185901923690642,6.374525373464946,4.6532150996838935,12.190131224144498,g
5.349373390906423,14.824550625408168,13.671609205098651,2.9321543109152737,13.187974252053237,6.6163974049164125,4.663189559815368,12.52900688930266,g
5.4450006837699885,13.38395627308753,11.706322182068815,2.8988860192877675,13.011883619970542,6.783783513682664,4.624962359569745,12.722358105547668,g
5.499416269893564,13.700823670581022,13.624871746675131,2.834539627922023,12.833393641601887,7.031458435340807,4.73872739306678,12.911589365515809,g
5.514894493890761,13.93296053053474,13.398192373938667,4.646228100741738,12.781199710695821,7.4720643414364805,5.086315528777032,13.179588019402967,g
5.493709700375193,14.189945907173819,13.189325706490138,6.271111350993934,12.873096776999162,8.113064819999028,5.589937225921726,13.50473982883482,g
5.438136233960476,14.477327401125686,13.016364603764634,7.773515996334268,13.019320132920745,8.855984750228453,6.075453709093149,13.778369807532545,g
5.350448439260219,14.68530391283412,12.800419138530293,9.21009623251071,13.09132208022518,9.552913624327902,6.3892916689973775,13.871671221289617,g
5.2329206608880385,14.64889070885144,12.422302308307824,10.602093944134387,13.001872456952217,10.078497036228946,6.484802760880564,13.708980175139724,g
5.087827243457545,14.241011620107267,13.838356438072106,11.936538896094245,12.74613032801702,10.378266958160891,6.428015025126439,13.304548374803906,g
4.917442531582351,15.409214395992006,15.136801180721685,13.19349990155865,12.391901177568716,10.475706353959012,6.332305631100178,12.743511837566414,g
4.724040869876073,16.443746918829927,16.39243286919015,14.373793616961539,12.031607663911771,10.437719598544687,6.270932793917673,12.121675297463439,g
4.509896602952321,17.498366363631053,17.696484317740776,15.50303891006808,11.717595633827873,10.313686885207426,6.222280926079286,11.485826782547834,g
4.277284075424707,16.769226897482884,17.148016052350783,16.613377734839137,11.417125739425478,10.0822966172077,6.080212538851622,10.815926657194499,g
4.028477631906847,16.144709349145256,16.741117712646403,15.822213414268925,11.026261417391074,9.64778927832351,5.722391634036991,10.059171510502775,g
5.995978398907297,15.442834931233264,16.323826728799666,15.20581059892908,10.444042963527139,8.90298876464444,5.094004536886372,9.188669499574756,g
7.681327252172267,14.573449394426854,15.783657863439544,14.712542997730054,9.654851198980664,7.826009897658862,4.254926568974355,8.245472904131544,g
9.13272014087536,13.634703046885932,15.129527300757411,14.300591601039532,8.75660440766301,6.539209947361805,3.360362943032366,7.337694645074277,g
10.446800599989167,12.841694734341155,14.47264198589159,13.958495352298272,7.917812933624683,5.27502699272514,2.586126674967301,6.600470094585438,g
12.912827853775104,12.267746066725918,13.572274102725334,13.562425367889173,6.993578471824632,3.6287774732741425,1.7734683092293273,6.04547630078582,g
14.09431478619624,12.39082768177324,13.336784768463255,13.568307176848483,7.013545371364349,3.364337825477814,1.7409975525433192,6.326065945357422,g
15.243675911965113,12.554004955144435,13.14965105955514,13.732845351049463,7.327736485283756,3.4109635662808886,1.947592173029142,6.992323818753059,g
15.243675911965113,12.554004955144435,13.14965105955514,13.732845351049463,7.327736485283755,3.4109635662808886,1.947592173029142,6.99232381875306,g
16.37077446413214,12.650421318472286,12.96877269234496,14.028516878279124,7.900976689829565,3.742792891906473,2.4307362667230556,8.003770914712138,g
17.482106410243183,12.723644860614971,12.815125033926103,14.36754558770941,8.700100040091511,4.391349297100173,3.2219020234344917,9.244356261938922,g
16.337691958449327,12.887468478379983,12.728374794810717,14.611992800786894,9.665812836287312,5.3897432548029744,4.277408735038086,10.523447756776724,g
15.424132829875044,13.189668077999816,12.714009686239905,14.63049309389657,10.69728789878924,6.696360098334142,5.459248473270795,11.634889083922129,g
14.712429767959696,13.569511382286404,12.742933405639963,14.375321914050204,11.681919792213055,8.169611543648113,6.590898305847366,12.439211265590828,g
14.170829751698559,13.92819437007436,12.787038088998854,13.916492094168783,12.540836276243091,9.616033667583206,7.542146666706129,12.902299050927974,g
13.794375877766603,14.198327834692426,12.82889613024079,13.389987295498193,13.234345218046693,10.871619958797396,8.271415310103825,13.056727952736725,g
13.565857404230522,14.342720899764464,12.831986989752263,12.891780559973842,13.720184964354218,11.852501895034166,8.793868068229358,12.918660761568887,g
13.42645406113854,14.332513927571574,12.72320972946858,12.406804622073365,13.918102856854565,12.542684617149234,9.110098323859571,12.434159522700384,g
13.307747385069467,14.159496939921743,12.427695782723827,11.837854275355458,13.730053615716775,12.944333131777189,9.165904225349834,11.509013376167426,g
13.182784057893608,13.855941933988433,11.929794832105454,11.11082136479384,13.105678522792573,13.045235213814584,8.88657926271864,10.106657329314201,g
13.07583294592975,13.481701850982688,11.301438076342063,10.262788722840225,12.096274154137616,12.829350196447157,8.258538074565713,8.332191331926328,g
13.025396458661618,13.093077715784508,10.66700274721585,9.432724648606584,10.847033412446695,12.304124478733458,7.3801373236234245,6.420492176727045,g
13.028933050152048,12.71805575462599,10.1229434206538,8.758917941396058,9.524765634455353,11.505234251559388,6.426362438481807,4.626403847164992,g
13.001657459798798,12.33410523935819,9.667552308262009,8.27034517877928,8.232404319455643,10.477810776838194,5.552396069742698,3.1052397338816924,g
12.793843362593682,11.865197667256718,9.203329694227646,7.868649336591017,6.981787268279487,9.268443243494556,4.819353335164721,1.880804965476932,g
12.290630739231938,11.242720847746316,8.627554447989503,7.420363298355738,5.752264866506779,7.9470376522996515,4.202805256936491,0.9156216907702908,g
11.527461600253858,10.50558250327796,7.94097661452148,6.879605282961599,4.57968588421318,6.633202690858032,3.667156553813129,0.20874550613479773,g
10.696195667968885,9.820912530403854,7.268646328870574,6.332567116847803,3.5827519988971366,5.485581430697493,3.2339238419457246,-0.1661766492737141,g
10.01088010931943,9.36552387363555,6.765743045092084,5.928928542138868,2.895428614655386,4.645829291450047,2.9853794255940045,-0.10708777207196088,g
9.559906332475764,9.181917489374083,6.501334360567753,5.771185531737042,2.5748682884194305,4.177842660519583,3.006056842689649,0.43435643815742786,g
9.287463272301839,9.167653274109387,6.433084142760525,5.864670262224031,2.5791261271135815,4.057490931741062,3.3173995207971587,1.407099149436907,g
9.101595229146945,9.199989141347642,6.484255178051063,6.161619238429532,2.8311589323952218,4.228733514205279,3.8628281892816836,2.6873877120379595,g
8.989862684184047,9.255041957042502,6.635759686978079,6.640074784890478,3.2979381403681898,4.67812405192682,4.551202578863537,4.148718544623676,g
9.050868418746228,9.419498413585462,6.949366168606124,7.333290569217627,4.006440971469277,5.4514826924876605,5.310241331711437,5.70647526902899,g
9.433194963517057,9.810098849210227,7.509300506803316,8.27967529774027,4.982809915695704,6.582344910082858,6.094922730806027,7.294781983705219,g
10.218900925891564,10.464453917578222,8.330135877100687,9.439296901461114,6.16920204472575,7.990408584933779,6.850440859966666,8.806078730016386,g
11.319957617390898,11.269141686567584,9.302586338578545,10.656755704071163,7.395790800954804,9.453130328101802,7.485617781793404,10.069713217848252,g
12.477832760008637,11.993575286787959,10.22972328974844,11.713964477324286,8.447045731946918,10.697610837966511,7.902131837963357,10.909769799628284,g
13.394327257904417,12.434961787509025,10.934927384182789,12.4357205467008,9.179083041796181,11.547266360294163,8.057100076044826,11.23958057895523,g
13.892616114932471,12.551988043082229,11.348262578842066,12.759346738325887,9.586790792698917,12.00024339652997,7.993024496486479,11.111288937245353,g
13.970840373353141,12.446228578517388,11.494111512603675,12.71575707756485,9.758415124153325,12.175081880497913,7.801197848715631,10.68175678894971,g
13.731209557612843,12.218401580455934,11.41048191553018,12.359520914248932,9.765720576435054,12.176782628586418,7.552128875452811,10.127517096811209,g
13.286782394279143,11.873106698395285,11.099849220965956,11.728656253168047,9.59886738442583,12.00144159172147,7.2554394977046615,9.57109268229489,g
12.720632744989636,11.366059864194591,10.55635211109385,10.86529884026737,9.19890851090032,11.556728648492493,6.880532895700658,9.058144649135565,g
12.079904148931245,10.703752699905847,9.816745596109381,9.852760422295777,8.540223433305401,10.772226076671014,6.41485484350832,8.583634973169328,g
11.375464943892377,9.9708271764649,8.967822986442485,8.811027247631687,7.6807240667225685,9.697028097027378,5.9040753778639825,8.134356440191747,g
10.599619994493457,9.278217600533882,8.106115433511283,7.845100862200941,6.742960229892607,8.494867047346876,5.432212802339151,7.709978216876246,g
9.763574304133787,8.699581565260933,7.291776482777337,6.992751510552971,5.848614187272614,7.339543762575582,5.05351455547683,7.310717353165494,g
8.916525980275699,8.235006226662554,6.5311963426037325,6.220673065450105,5.056261179217353,6.303730413781761,4.738032841110961,6.9151285776243885,g
8.127603441467304,7.814083693558042,5.797075019659465,5.475460073330253,4.3452474068596505,5.336018007128086,4.385289808523927,6.476745085119083,g
7.459002567462461,7.35031566832252,5.06988848956888,4.745257572577051,3.6534245848628126,4.334408407059519,3.8950242443159766,5.938916554042774,g
6.567287141749633,6.253274571820561,3.6891545061690594,3.4955658832315537,2.17040365749929,2.0893051162990304,2.425354066876845,4.353288827257587,g
6.213781124915949,5.7138135619103325,3.0316781223276865,2.9862845984651143,1.3871435305466597,0.9839709662635274,1.5569781164359877,3.2382210946439356,g
5.733388304281084,5.200000048684477,2.3316492533029405,2.443867612778015,0.6225416930731281,0.07413504409661335,0.722390607458678,1.9514927190290319,g
5.733388304281084,5.200000048684477,2.3316492533029405,2.443867612778015,0.6225416930731281,0.07413504409661335,0.722390607458678,1.9514927190290323,g
5.049765277103779,4.709365251202532,1.5693691571211255,1.7859724128060765,-0.04724468984384202,-0.4754195280769096,0.04459060601187472,0.6488805757058244,g
4.255190925626197,4.308540325962582,0.8305287878787114,1.0488774884871135,-0.5066089500004219,-0.5111199918281389,-0.3228626169775623,-0.4220311337730716,g
3.570609068625592,4.127135617431664,0.2854445483709503,0.4028783966064081,-0.6383242012255996,0.06692040159569793,-0.2206949461882854,-0.9995981892462853,g
3.207961290404596,4.274306547547471,0.09194873106394348,0.06190048758090816,-0.37957749820263587,1.2614426520952204,0.46225777772074894,-0.9141038554638186,g
3.2598694559138623,4.780366231212915,0.31072175920596223,0.15982769591201676,0.2549685065331489,2.9653166466312664,1.7358852311706172,-0.1606602120604583,g
3.681738253792246,5.60560087355263,0.8924637657087615,0.6830793142072373,1.1948559952445126,3.194240688117515,1.8791011135702118,1.1059306264472366,g
4.339463426939018,6.664354205416702,1.7214498108880996,1.493314202054338,2.3450178638345127,3.5615231789205817,2.174593915811325,2.6506058897785607,g
5.084999086849489,7.833084194432848,2.6713693053224565,2.411551854334229,3.5976043825839374,5.614910729423569,2.5880317611056856,4.2587798031888235,g
5.836032613696508,8.971245739485902,3.6440519816098864,3.3064054602330364,4.830832122410543,7.387803734659274,4.451885126443507,5.792496096219392,g
6.611754764524262,9.959281188923727,4.575884589315674,4.134614679805902,5.912774177493429,8.680393883334881,5.904481399882664,7.173147528452913,g
7.4839860534055065,10.712282194033222,5.414736605076909,4.915551292907288,6.7169451409434044,9.300460513137963,6.771291990317837,8.32045713202945,g
8.488252563168649,11.168801732104118,6.101127896219632,5.669322856926142,7.149444832837622,9.125493984468337,6.936225482008138,9.107956077154295,g
9.589880914883562,11.306052298636711,6.587030169445674,6.372647876870399,7.179043329302745,8.174921368295696,6.372558942641931,9.374323770815336,g
10.72309136783538,11.177439170392965,6.871222631755408,6.961055912730201,6.843924936477478,6.624524866003355,5.151654344564029,8.98098468339818,g
11.827285018409096,10.893752986008206,6.993392380853281,7.3604920554438,6.213798276349863,4.730375697980269,3.4132710579070333,7.872863314893607,g
12.83790346568976,10.531043282390712,6.979313697088392,7.519516838581474,5.3341746030997745,4.508344866968558,2.929172986057801,6.105386753734601,g
13.68261677650315,10.072362181517686,6.806769104576165,7.436171935294036,4.218039512500954,4.246834500022104,2.371094153143845,3.8350486484307895,g
14.327240703516082,9.471956703639615,6.452042155214992,7.183899233996456,2.912979171556161,2.2525541775054863,1.7032313891827109,1.2979327757470802,g
14.827884636019132,8.778887953254856,5.9827743621605505,6.92076379195454,1.5855657275794486,0.4153219654099588,-0.420405809848161,-1.2072599472678291,g
15.323504747209082,8.1858665590152,5.600155384497379,6.8528046329764525,0.5266213486007155,-1.020852543707155,-2.0766857702647057,-3.348279041222965,g
15.965897306608648,7.95358727150055,5.5678393311701475,7.146844074985874,0.03620725166559664,-1.7593768162723051,-3.022703745403576,-4.830938377744663,g
16.825109685326662,8.26135247867428,6.052672255554554,7.832088564241113,0.24549558287505274,-1.6413667938913914,-3.17357744943068,-5.505875859391158,g
17.805793854026824,9.064129236425908,6.9764322320533525,8.754195905833301,0.9974593122814139,-0.8054621416998066,-2.6901241668279874,-5.441851389668356,g
18.628407013639794,10.047992511162855,7.998481457038731,9.628149179026588,1.8934594529310516,0.3337895327266334,-1.9296370556055848,-4.886318579809443,g
18.93668181269263,10.764277859223366,8.682423421205463,10.178152089291483,2.5101183408544507,1.3088827389156736,-1.2587013500510598,-4.110933952006162,g
18.500632476649834,10.900549263316893,8.756605447627129,10.28346813072199,2.653108813072149,1.8740327378769102,-0.8487618753685308,-3.244996906543089,g
17.360278571798165,10.48215134567793,8.273584708965043,10.026889164916199,2.457964372257469,2.12318454152616,-0.6096158525876518,-2.2283523209522236,g
15.777723613361507,9.814309084110302,7.534086281968287,9.604896788298698,2.250686466872209,2.3567249709921567,-0.3174545635885967,-0.9290067726219655,g
14.040541783015698,9.209319904900905,6.83398704513718,9.165453833766863,2.270907253815671,2.7983080163393588,0.15920378036363844,0.6606191246746624,g
12.285943971709099,8.738688092535716,6.237672433440724,8.698660628853252,2.4699705129813236,3.3814174622392223,0.7123898218697254,2.304903514400934,g
10.468815560847489,8.199136132708,5.55041210669071,8.064639036498916,2.5354243409126176,3.7739670725308074,1.046829763835254,3.5934767564285024,g
8.47071024408472,7.287043188340663,4.502217388926755,7.136357449625772,2.1240003545769,3.627951401839595,0.9014677164732443,4.170311687095454,g
6.265287107387084,5.845230259382221,3.0005714888938804,5.945940250283348,1.136049323791221,2.8637557024094775,0.2739518488189245,3.9635187724698566,g
4.027410161095747,4.022757065351248,1.2590925075208628,4.717363272152321,-0.17025819310153115,1.7628318809447827,-0.5353605845124468,3.235589868326565,g
2.0901745349573493,2.228297484555026,-0.3055071937067872,3.7526655473237605,-1.3216215054286606,0.7871801944465846,-1.1123465096323444,2.4024052537156346,g
0.7546562073856709,0.879196491104555,-1.3400116043931103,3.2518119390518097,-1.9390287963836765,0.2604681424269756,-1.2169927418658522,1.750736283465809,g
0.09735628157382828,0.12391606219869826,-1.7796283060662748,3.1980637538234147,-1.9900652940266568,0.1537658106509038,-0.950095323081474,1.2632567972433546,g
-0.05807365724929527,-0.23146576631575783,-1.8575851023698202,3.3873139750522085,-1.7986121628986766,0.13008290644156797,-0.6712968886261867,0.6727224692881086,g
0.008581163046975426,-0.5397854691545514,-1.9090443345724935,3.568444103583468,-1.8136428785512853,-0.2003420402574269,-0.7341309062007839,-0.3061513092709262,g
0.09519128336320089,-1.0506153641133293,-2.140782308171546,3.5872924829718364,-2.314710478544705,-1.010314732834727,-1.2386589682324307,-1.7412281710778323,g
0.15289639362160762,-1.7775145575814661,-2.5346564806572673,3.4422422041689202,-3.2569057360483114,-2.1602829811901296,-1.980861831309063,-3.411104333315481,g
0.24394335165038963,-2.5443589721364566,-2.920209876000174,3.236502212981505,-4.338663943124543,-3.327105145008096,-2.6267401540975195,-4.9416079896144955,g
0.7720614264234806,-3.413691830722061,-3.1199868070338623,3.036928040271807,-5.746102215655275,-4.865054053528097,-3.0813560782218383,-6.667934136692516,g
1.137482884228535,-3.44387287773944,-2.9759129621291156,3.0964477274361073,-5.989616869953243,-5.339181843297432,-3.210902516042347,-6.978515360801455,g
1.4367880173911511,-3.368366700689672,-2.8128959163486145,3.257256006113434,-6.149237945286349,-5.828976694638011,-3.56776596555221,-7.164393946348872,g
1.4367880173911511,-3.368366700689672,-2.812895916348614,3.257256006113434,-6.149237945286349,-5.828976694638011,-3.56776596555221,-7.164393946348872,g
1.6488917067572775,-3.275900858620041,-2.6518485424450353,3.5645057087094885,-6.33856723178239,-6.335503319040705,-4.1220441464513655,-7.268543089631312,g
1.8741208685351958,-3.1002636625011584,-2.3873063027219383,4.109801813358635,-6.475532499098717,-6.669624330666926,-4.612661505536392,-7.1564413909744955,g
2.239997125761677,-2.6964837690055816,-1.881058385925232,4.966051181163957,-6.346834473528641,-6.58614493094575,-4.737428343879059,-6.64049091171218,g
2.764476883374633,-2.0077217906537506,-1.0982135788938074,6.1085364637997515,-5.784210264187513,-5.967597953858625,-4.36764846927783,-5.650408139479729,g
3.313856787225807,-1.1455317603792916,-0.16351829491499287,7.388857958339966,-4.800670683184798,-4.915304059723208,-3.6217464440525005,-4.314453189514286,g
3.6912423080265966,-0.31854050451185895,0.7074229216593972,8.590924170743152,-3.585710095550226,-3.686528993924008,-2.7564432075155194,-2.8948705669709396,g
3.7762774789144835,0.30302567369467187,1.3442642336910975,9.535506200398022,-2.380028611316285,-2.535256376036829,-1.9772788286744518,-1.6367541948617066,g
3.619546578986513,0.6825075474686836,1.7295789030354016,10.163649148010881,-1.3315969622216506,-1.5785195871612647,-1.319677195360913,-0.650981911072466,g
3.435863216548346,0.9321799075308522,2.0105105039377817,10.54452292195788,-0.4308445015021136,-0.7773357549626565,-0.6781937419139822,0.08890181098643142,g
3.483959135638778,1.2420234893913502,2.4026927703367957,10.804044117819208,0.44074879986712745,-0.02516797239641999,0.06437699284569617,0.658104484476868,g
3.888972320811864,1.744473780129803,3.041036867936529,11.022475424735303,1.3915195861535734,0.7407215050587242,0.925947199498863,1.0896529712319936,g
4.540493986342281,2.4074294719066187,3.8805746108158963,11.17153062455316,2.418636383500493,1.4891433777747722,1.8119289846267814,1.3479331270178816,g
5.1695219579402965,3.058314089917196,4.724348436808999,11.136372105351068,3.3941933342547914,2.1245165785249003,2.5840218308994554,1.3622800870121687,g
5.547970309365515,3.5191544355377475,5.352246734133767,10.805756084343095,4.1349592188504065,2.550358888109293,3.1365214780553883,1.0751654307358378,g
5.633641629914052,3.7159340154986666,5.642677001194572,10.16084506571607,4.493552561798451,2.71113551877835,3.425458566373942,0.47375830719078077,g
5.548658218348589,3.6764617943644673,5.6031846713925955,9.295952240249573,4.412757247120409,2.5942708257468627,3.4529258492667183,-0.39686692271490476,g
5.441074628886205,3.465633876929514,5.31509370746614,8.358770754700593,3.9275735705236627,2.212669882114956,3.241343910172705,-1.4341833835713715,g
5.353883114701892,3.1353344524085864,4.851984646218531,7.4558202054165275,3.1306658635117754,1.596162478002749,2.823859156450191,-2.4963999411785562,g
5.186224981575972,2.699184083761363,4.228518023368678,6.591030890011372,2.1270362270153416,0.8025033497375962,2.2529541070905594,-3.4394294322995136,g
4.769654028369354,2.126598020510628,3.4119744746849996,5.6829471810457735,1.0070334588079597,-0.0650947389167476,1.6123683739277896,-4.15733236340246,g
4.021167006393763,1.3831786516386955,2.3916123857587097,4.6506148560592715,-0.14665223731455299,-0.8604040304475792,1.0126949803241783,-4.603836683901985,g
3.0616333455397333,0.5079097527170945,1.2493291610466084,3.5029371544876327,-1.2377272948177402,-1.433929444668005,0.5612072880260384,-4.785741520651495,g
2.183227635410659,-0.35480994176945063,0.16235352438816886,2.3609782690977026,-2.1573935094524215,-1.6939392752140225,0.3206205393645483,-4.737449034584725,g
1.679389318130808,-1.0143459917081785,-0.665367011530239,1.4020236349811541,-2.8110659928560624,-1.6418526222989827,0.2894590547663175,-4.492590027872199,g
1.690921568461413,-1.3161334368766826,-1.0730504270455568,0.7802054681114606,-3.1346875585751457,-1.3458722999151962,0.42326034479743146,-4.066498171007913,g
2.19052827930635,-1.1674651032343104,-0.9619716034892309,0.5815308261588115,-3.0816773095130836,-0.8707553454233847,0.6785172124865398,-3.4598176349889442,g
3.0689833930334673,-0.531206462777473,-0.28878925128276206,0.8203103525314459,-2.611215672412721,-0.22709880147660888,1.0397935155829223,-2.6832310000448407,g
4.210890410828464,0.5515461784615618,0.920573603428242,1.4491101886226059,-1.7133301674928485,0.6087630172057857,1.507037300405226,-1.7848467272689081,g
5.516926285385429,1.9339494253760694,2.5455209681401945,2.366710451717439,-0.4567259822930462,1.6140373517481599,2.053855247506055,-0.854696907183054,g
6.899742691059589,3.397911932419931,4.378314854110781,3.4327922140472467,0.9900675079446906,2.6446962417849167,2.589320082434683,0.0016820782656012945,g
8.271018874367233,4.737644427025296,6.177691544599308,4.499325270371694,2.3954289035203384,3.4419449786749583,2.958884998630758,0.7048229409672379,g
9.524415111353981,5.816458735869345,7.7406802876391465,5.453134563140256,3.548449509107454,3.743415978139093,3.002614477319456,1.2350210576412008,g
10.542702919726224,6.57243892273883,8.958868061604633,6.249450897236274,4.347420362725176,3.4366901273183807,2.6467979691372006,1.6402401842367067,g
11.242415368258587,7.006574762272105,9.832195204289778,6.910352296150184,4.83670062676639,2.6383975165500204,1.962487628594706,2.007614137037998,g
11.606684516178959,7.1598821062440905,10.423529502299806,7.477543193474142,5.155051939262437,1.6231479263903963,1.1341724013460484,2.406304282398827,g
11.658003743510706,7.064292948003614,10.777685139236802,7.950581430060237,5.423847015494909,0.6472386369666105,0.35479828144898534,2.8389233486785477,g
11.411109157052403,6.707502848995697,10.87533768077763,8.271321575641156,5.665295227757054,-0.19501581781310584,-0.2697131794794514,3.244389347443227,g
10.88123696027881,6.074015390618377,10.6700793171163,8.382405489969377,5.819297042965477,-0.9731907350615806,-0.7366883083117884,3.5530591245951433,g
10.13640816967649,5.230412627476201,10.169670501416178,8.311437129916909,5.831992322240794,-1.794125404645052,-1.0896726922820847,3.744684559028625,g
9.312579742898688,4.348331379591032,9.480050309636514,8.200243262206804,5.728874774895584,-2.657969738251865,-1.3472079011163314,3.861163742525536,g
8.570612658518412,3.6383019712139495,8.78600928938429,8.251639491642559,5.622953458187239,-3.404800973543329,-1.4661157967197442,3.975262747818648,g
7.881161583763214,3.4053154768080978,8.232167972172613,9.432751415492628,6.030750361568364,-3.5933312504511186,-0.9161096756118707,4.417546871821299,g
8.10415579835532,4.0641494231049595,8.664984851247661,10.57187118265079,6.745703424924933,-2.820366554617088,-0.14656902643498232,4.749923564867993,g
8.662566378817843,5.16686630203058,9.519470474693,11.868622246537601,7.7149913601717035,-1.6718481088811523,0.8246258445713535,5.050643957757369,g
8.662566378817843,5.166866302030582,9.519470474693,11.868622246537601,7.7149913601717035,-1.6718481088811523,0.8246258445713535,5.05064395775737,g
9.368946483862167,6.462169308334454,10.527771508027392,13.066784123932473,8.679924071646578,-0.48952342958863093,1.7360392038486783,5.152057967903224,g
9.995790047903997,7.640489766670197,11.358889544110907,13.93767840437435,9.339059393636179,0.41901743245428946,2.296176954733614,4.866209751014415,g
10.388356095514538,8.485154617478363,11.791147214105521,14.367753950557429,9.502468443440119,0.9194391118734385,2.3216109340359754,4.075488791956767,g
10.506302652820407,8.934454842979743,11.801496344528095,14.37760511256206,9.17341096577379,1.0676368327372097,1.822129234754365,2.809114630476637,g
10.380247849255408,9.021635225845007,11.505245331152755,14.058352804839581,8.496354449905219,1.0000588783091788,0.970294698827187,1.23861758548575,g
10.033240913447532,8.77035711777915,10.998890651919606,13.47170792702139,7.614826780560023,0.7843214389741698,-0.02780970196967929,-0.4227877470406959,g
9.411034453684957,8.123565520724133,10.228448785881863,12.58654720311505,6.548546449144936,0.3433135060938158,-1.068951129508498,-2.0472854611384945,g
8.36662039787253,6.949866873457298,8.996021157064645,11.306796534923526,5.190112996335663,-0.48774375294777067,-2.1910748149893857,-3.6358862740729294,g
6.750350555964362,5.151274038606497,7.127546793243704,9.587492482551975,3.4385610283662986,-1.8106392028865124,-3.480008604913869,-5.228499772859153,g
4.574247642363952,2.8178640021596086,4.682864261219048,7.556913853596913,1.366306739223098,-3.5387032187232874,-4.923332590303231,-6.755230556707621,g
2.0981210651096,0.27257363939652013,2.011799313146048,5.526768366849191,-0.7423557949799312,-5.407776312986804,-6.344642010162943,-7.974951760623145,g
-0.28392726559140513,-2.094042035742448,-0.43101846841116664,3.845261677665216,-2.5473812928130277,-7.127728696062585,-7.485765881265214,-8.583177251269897,g
-2.2771336771900423,-4.073644557729045,-2.3716057981458083,2.6906426563430834,-3.8823333876191812,-8.555166823288403,-8.172441456520485,-8.418964142958298,g
-3.829418066744162,-5.7307070124036015,-3.8535202093720473,1.9748131082952305,-4.851262986295222,-9.745573961098273,-8.425061292274703,-7.600817110558113,g
-5.075862901619719,-7.256039923618085,-5.117751940461568,1.4404827230984933,-5.708465873408224,-10.849334996507832,-8.426934398021832,-6.472574808637006,g
-6.168702938640001,-8.749821327956845,-6.353524303976824,0.8691804061637105,-6.637265581139229,-11.951397139030856,-8.38480598581355,-5.400910965179185,g
-7.14380026363264,-10.13224706758026,-7.539678774249824,0.23010757668622253,-7.6208453103298455,-12.994009296457815,-8.40019557533631,-4.591014903692553,g
-7.904570472709733,-11.21945342654665,-8.48725420586389,-0.337644962925667,-8.496915950138458,-13.83790417440992,-8.449577862079845,-4.0610209838149895,g
-8.315150285423163,-11.872795342198364,-9.019005679158155,-0.6742852917818618,-9.126138982717496,-14.393163478219648,-8.470962707694706,-3.765406505647899,g
-8.329554680319303,-12.111452668805132,-9.12495470794669,-0.7450538016922428,-9.520985526210614,-14.697061052185177,-8.463885130775841,-3.7287011327606963,g
-8.045606167577908,-12.10608085365519,-8.965831186759582,-0.6630759274461885,-9.827642950601604,-14.873903766119076,-8.509713344983346,-4.062968644179708,g
-7.621505044143203,-12.039706396764203,-8.728193540175619,-0.5801606074972544,-10.18392996082154,-15.023204011305324,-8.70460726864687,-4.869232475901025,g
-7.133783683954047,-11.94552920075095,-8.467526293753,-0.5497454145789304,-10.585557465229297,-15.14370949851359,-9.07928317879766,-6.130038603830686,g
-6.5334409972621,-11.686213102377732,-8.085595354171385,-0.48590718331291055,-10.882522645848045,-15.158516959600089,-9.578986943819567,-7.6916940352267416,g
-5.748862208070828,-11.105506938206412,-7.453677616796339,-0.2501847721348819,-10.901077710316915,-15.007201515924724,-10.107982143367067,-9.338565186652273,g
-4.814660276319316,-10.19352734650378,-6.552426629407054,0.21880363181234883,-10.57081709118728,-14.712258300532246,-10.58560346539474,-10.88042276192731,g
-3.891685068466841,-9.106547036440288,-5.502847709511838,0.8477124658856965,-9.949234372960083,-14.36057947107155,-10.966388671599228,-12.178139870308923,g
-3.1797960906919305,-8.059250941660752,-4.487245921073903,1.4806833097027499,-9.149145868739378,-14.025474508225022,-11.222247582215802,-13.107583282093268,g
-2.8175314884912774,-7.215147671119253,-3.6502731174863596,1.9821456679580014,-8.255775529790323,-13.706453833869608,-11.317296564553603,-13.528450570913312,g
-2.8328511493834014,-6.640174362748287,-3.052653428381718,2.3021599641287462,-7.301556706995269,-13.339865604075081,-11.20291297638218,-13.31707963588311,g
-3.156780873888657,-6.30715759099221,-2.6878951212141837,2.4621026565535766,-6.299820392550549,-12.865253030962844,-10.837056133349872,-12.447948720827402,g
-3.6937193577771645,-6.142782729940032,-2.5347237133564517,2.48587484146102,-5.295309056740294,-12.284776450097661,-10.211709987988915,-11.045748158619551,g
-4.406717599403426,-6.104469596160549,-2.6024152029574426,2.341660485743657,-4.384776148222729,-11.664076821136605,-9.367333331464955,-9.347548577744538,g
-5.336221039145121,-6.221707832012688,-2.928123234202719,1.9479216659047314,-3.685279366547423,-11.078513810701015,-8.384439939821704,-7.597691838634691,g
-6.521899642677747,-6.549461398019817,-3.5272214844165553,1.2398080560573193,-3.2739507966795514,-10.558416681461946,-7.361533181041516,-5.9612919037570915,g
-7.9127908992109255,-7.089260694778595,-4.352607633210173,0.23434313288949354,-3.155913102434002,-10.08451447021138,-6.397490902583995,-4.521141205824209,g
-9.369073521879205,-7.7764048960708605,-5.311548913960901,-0.9661786132758134,-3.290557521088405,-9.631440746057399,-5.583664639119465,-3.3410180135577,g
-10.742901432461538,-8.531770863807818,-6.31807175126543,-2.231767233395762,-3.641499450258518,-9.20828937517892,-4.992959388322311,-2.5189590963507116,g
-11.943175561267061,-9.294021099844059,-7.321973560349898,-3.4694101517372338,-4.1939640923799555,-8.853991988460269,-4.65864357001689,-2.1721994590252263,g
-12.942962844795527,-10.009002126136131,-8.299403720776839,-4.649033428836136,-4.932112861408303,-8.59947803341065,-4.56097007153719,-2.367380829729993,g
-13.763628424702464,-10.633241841867832,-9.238205265659618,-5.787830418936549,-5.816341848944919,-8.44281019282589,-4.645782226868443,-3.062791689581258,g
-14.453962399657007,-11.164301940648787,-10.134890919315753,-6.913981901463101,-6.785674969632575,-8.360362026801335,-4.867177781152,-4.115320985340501,g
-15.533215831181286,-12.07136784828108,-11.769944683501965,-9.091485660231566,-8.690995118072825,-8.341201774514868,-5.677252316501553,-6.584231886999885,g
-15.85319243545803,-12.437908278083226,-12.443807196767153,-10.022335421487451,-9.467281380031736,-8.363205514995716,-6.216274023170402,-7.718461324095576,g
-15.976971205836662,-12.687012753627883,-12.960610010657941,-10.745861458971474,-10.021771061753604,-8.344313049623338,-6.716500031658645,-8.642247804298318,g
-15.976971205836662,-12.687012753627883,-12.960610010657945,-10.745861458971474,-10.021771061753604,-8.344313049623338,-6.7165000316586445,-8.64224780429832,g
-15.90882564799532,-12.778675824861887,-13.279258110783786,-11.21228000092389,-10.297438376320205,-8.221729361050393,-7.034879189654579,-9.257031846708175,g
-15.643674775522197,-12.671584499644403,-13.352979308842816,-11.395357994597097,-10.26192922461029,-7.959558595400239,-7.072690999397973,-9.486891023630976,g
-15.135449211839358,-12.31209603579548,-13.123032020872733,-11.275220202672253,-9.905570018133687,-7.572304304626643,-6.82721940090008,-9.313640144513903,g
-14.336478876932128,-11.665390315611166,-12.539838045100236,-10.833813296250392,-9.236410175474816,-7.108942366514135,-6.375740403506172,-8.790372239964354,g
-13.259055709919199,-10.746603635307583,-11.592054752850341,-10.067346236234144,-8.26956465503093,-6.606577801170372,-5.804581958893448,-8.012149772391675,g
-11.98496115926984,-9.602255571791193,-10.315047863636185,-8.998969504343865,-7.017472604553123,-6.054443747667257,-5.144854234093439,-7.061453167888509,g
-10.624504451989498,-8.276775214455085,-8.781029296163807,-7.6798701805611245,-5.500500703719287,-5.4041572480792635,-4.3712397777543845,-5.971008661583292,g
-9.272425432715183,-6.819463320216381,-7.0857085659650325,-6.180392750978391,-3.7783157984650337,-4.620554223455764,-3.4629613378004875,-4.735235578457886,g
-7.980980783528873,-5.3092601723927615,-5.329776204153414,-4.575871562342791,-1.9674932783482035,-3.729096857666826,-2.468770232581274,-3.3607701083044006,g
-6.7543517143460985,-3.844740363456181,-3.5953917112915668,-2.9329634465409264,-0.2158334864307326,-2.819465171075022,-1.5139432260945196,-1.9102039480653155,g
-5.581115275556934,-2.514699666930628,-1.940714577204227,-1.3080368618956386,1.3482014750383722,-2.004717557827358,-0.7395331307656249,-0.4969358906121045,g
-4.491951075973657,-1.3962355645852635,-0.42648975973063735,0.23543195778150708,2.645244013865083,-1.371328240958298,-0.22426771542965157,0.7660476537226395,g
-3.5777996262024963,-0.5646428436923587,0.8545155771185069,1.6044631743078939,3.6360732244787473,-0.9569387800269105,0.04582964441483488,1.817423460293049,g
-2.9361200136904912,-0.06992469589220063,1.786180511659032,2.6766563940632553,4.2974527635324185,-0.7621763161232348,0.13922621056381854,2.6563034374556316,g
-2.6098496186509834,0.09803844162233616,2.2751087617584913,3.3349176933383915,4.613310400510505,-0.7698065444047554,0.11466270825435212,3.310503649007186,g
-2.5925023492498815,-0.0018299936755394653,2.298078401045643,3.518911472511937,4.590262224557563,-0.9427109593446709,-0.0058122213319171554,3.8007601462481895,g
-2.867645588554239,-0.30211470418850334,1.9252733138965226,3.2606969911795622,4.284378689852216,-1.2057114215734392,-0.20814067220649113,4.129225011070869,g
-3.3991363630106486,-0.7259982340979368,1.3135260100206214,2.6813478272244646,3.812717374964773,-1.445857754423115,-0.44509569742354227,4.290669669169451,g
-4.077602000843757,-1.150011761741801,0.6624113976292726,1.9452131188290807,3.3244049108555194,-1.5517634717460569,-0.6352606363099773,4.288913786471396,g
-4.715606734495159,-1.4142075319504914,0.13612573593238958,1.1900655166654783,2.9359509864623035,-1.4684250619821342,-0.7053294610503364,4.144919738499536,g
-5.129496285929873,-1.4015370143045711,-0.20399704397332585,0.4723272745754109,2.6797051183599017,-1.221149150205443,-0.6314500288630222,3.893142816736524,g
-5.234294663192481,-1.0983878432225933,-0.3931399821613897,-0.22945627089181073,2.5199692821467172,-0.8845596057710268,-0.43899302596968115,3.573343614147879,g
-5.065024082359622,-0.5656154555235402,-0.475623032775648,-0.9437760606624537,2.433218529224197,-0.5150473709285938,-0.1612741110356884,3.2318704397182607,g
-4.715830961390778,0.13910269508840709,-0.41072003198178975,-1.6174436824146983,2.480804121264236,-0.0941792366588233,0.20627244267803896,2.9361973870132814,g
-4.248259245643038,1.0065898616482873,-0.060369214803443635,-2.0886861931394303,2.799952944360583,0.46791383989905544,0.713082175795432,2.7808474900625275,g
-3.633320115718192,2.062954481246323,0.7203013893083451,-2.16374795110094,3.507799571648518,1.2538833089314836,1.40432895765325,2.8553279440402717,g
-2.7837446609465024,3.3149139907954073,1.9518551072975505,-1.7545922383555108,4.588845804194862,2.2332764259515283,2.247964801037627,3.180697695744654,g
-1.676241277527732,4.681310393752959,3.458122085310434,-0.9739073932650989,5.857159861277041,3.2230946582838937,3.1066713068498184,3.6685241238795223,g
-0.45925750069074567,5.969773298552932,4.923570396379745,-0.10076302897891072,7.037424760602223,3.9745209999656104,3.799900676340049,4.152822415359616,g
0.5864718534193692,6.96312688986383,6.064104546559059,0.5775807087733253,7.92160569830766,4.338567682623271,4.221354260480004,4.483390224522508,g
1.2306718841882873,7.577152108344734,6.794692801840027,0.9408081392153361,8.488797930103143,4.379942625005495,4.414891542638694,4.610659841850458,g
1.4519414838792077,7.934861289639835,7.257615973161973,1.0955421181395741,8.89000574062112,4.3378848272208606,4.536675291963414,4.597571160013948,g
1.4244579392144243,8.259342447931765,7.6833803630924535,1.2718622171088279,9.304758505487026,4.45458736235689,4.726300647414071,4.553293524329031,g
1.3656163042178915,8.682235737761456,8.201107684957815,1.6370060865517773,9.785249709886326,4.797579439436884,4.987544392052053,4.54053194877632,g
1.391891437317703,9.149755276142162,8.749737760956567,2.1700860712261103,10.211616477305219,5.207415784495291,5.174422411067963,4.523808016482141,g
1.4790028994833493,9.486808956394725,9.141533136760703,2.6874804392892075,10.385505940044126,5.411153179236049,5.099722956469324,4.39922608798185,g
0.6415203857847495,-0.952226795785396,-0.0719391233095715,5.496090616697536,-0.3412626663306228,-3.0211521938424166,-3.245972346223661,-0.9502864948398091,b
-0.3477686036090297,-1.4053124973160316,-0.5472876045598335,5.042626277795393,-0.3501341136097661,-3.1942273384608,-3.375384520354211,-0.8092179254010082,b
-1.1352244665444169,-1.823456881107105,-0.9140185537891499,4.604046951664244,-0.40564956465880303,-3.3538881945796843,-3.493628620036526,-0.6871857359411891,b
-1.668013962782566,-2.15285833936725,-1.11268355915816,4.250738281038251,-0.5292853205617886,-3.5167234688368594,-3.616535313904426,-0.5982642125644322,b
-1.9585796194666654,-2.3395315296119947,-1.1524908332799013,4.008231480381445,-0.7040168340590357,-3.6496711519802028,-3.695505686722192,-0.5366804146319085,b
-2.1119681161322528,-2.40997336477267,-1.1401038670567367,3.7942729648110403,-0.9411401824565203,-3.7613560274776865,-3.7330308049136347,-0.5509068997274003,b
-2.3230580608791818,-2.5287322551682787,-1.260504063222767,3.431440105590819,-1.3341259816383126,-3.971231826087074,-3.8675853590081646,-0.7716589820727047,b
-2.785562432542851,-2.9241875999442777,-1.6866995835197283,2.751782796432928,-2.0213652943751823,-4.469789180469935,-4.320952131416613,-1.3482062040805896,b
-3.5556611066461485,-3.714087466963362,-2.467108896319062,1.7277194742867164,-3.070492889559559,-5.379229121303082,-5.226108708249663,-2.330443824316034,b
-4.4878013278104385,-4.7890001178657995,-3.475070011952184,0.531118268325254,-4.37799599524362,-6.614123658574745,-6.467839329983979,-3.5839375836229563,b
-5.297173366994955,-5.851505235723325,-4.455635361300091,-0.5283322608415577,-5.669529249994517,-7.858033416984038,-7.676957934293204,-4.810424581459064,b
-5.696573497709006,-6.560648019620802,-5.135631192748795,-1.150223252640209,-6.611879031755349,-8.70073346064235,-8.41246921000899,-5.679851043456415,b
-5.5309828478041405,-6.683186051423817,-5.341463871000156,-1.1886440975704569,-6.973873246343082,-8.861427649469203,-8.417032648622826,-5.998655003334121,b
-4.856824071557452,-6.191994227459359,-5.0739134604443885,-0.7118955532949605,-6.737125425301739,-8.341412498042642,-7.755579963983813,-5.7988815164385885,b
-3.9149779439147805,-5.265022958665096,-4.492168517048581,0.05900597645142271,-6.07737619828277,-7.3875950526917125,-6.725337814200704,-5.281291259605965,b
-2.2005630882116067,-3.0275766803286843,-3.1031324728311227,1.6932800928961473,-4.309623750376731,-5.215179690064362,-4.500454716053045,-4.027324894083688,b
-1.5280615422120776,-1.8630373172696626,-2.378173372070351,2.4940086730195494,-3.330124349580342,-4.102546353858151,-3.2838428196893554,-3.350911188368402,b
-0.8659570141615015,-0.5915340383844548,-1.5496647507882062,3.3889126854662353,-2.243151739418245,-2.8484190115569237,-1.8510979000665657,-2.562014741268423,b
-0.8659570141615017,-0.5915340383844548,-1.549664750788206,3.3889126854662353,-2.243151739418245,-2.8484190115569232,-1.8510979000665664,-2.562014741268423,b
-0.218290481140979,0.758422643312068,-0.6334562926028043,4.377475227685017,-1.1000570866148993,-1.4557084244546716,-0.2700419578619856,-1.6802745601693574,b
0.2508575386782736,1.9904028064173271,0.1948779449861755,5.291829132244484,-0.09956013558169854,-0.13096393773473308,1.1759389898181214,-0.8678367289290906,b
0.29041094127445344,2.8051597187790698,0.6522648406244611,5.845580141103417,0.4792666433928356,0.7834883129855865,2.1223670118367695,-0.3783973558235968,b
-0.2992832895076908,2.934030442017226,0.4937349403967449,5.783750195736678,0.4197183465757065,0.9937851173322422,2.3282254418207864,-0.4258115817519272,b
-1.5347550749798502,2.27566748815095,-0.3331624426180044,5.040110732874183,-0.3052040248608538,0.4259047650911934,1.8061907311572427,-1.0570577368144123,b
-3.1955278145778365,0.9737807670879242,-1.629967680407819,3.7933563475331815,-1.5080200782417799,-0.740993344623816,0.7903824546716725,-2.121685051609773,b
-4.90562625579128,-0.6348889090585196,-3.042271341002993,2.3774654633171703,-2.8877408639667275,-2.195948791944287,-0.42232032130026437,-3.3586210244862604,b
-6.317506112796048,-2.196420734376632,-4.2490218078590365,1.1088656022378358,-4.182248364697854,-3.663580806787171,-1.6246702492427503,-4.527225392315124,b
-7.261519104604892,-3.504336110151636,-5.1017056292637974,0.1540733044531027,-5.2549016838777325,-4.988622986735301,-2.735708005127627,-5.48685113714951,b
-7.753538775412177,-4.518549067347054,-5.61851121222002,-0.48221014618758906,-6.067093911127918,-6.108040720142754,-3.732213376495762,-6.193277653754984,b
-7.899768020319824,-5.26630672953414,-5.878232449217939,-0.8741370934389234,-6.600937386574415,-6.984967907584905,-4.574149996833655,-6.652890831648195,b
-7.81473942124568,-5.764444109386143,-5.933668208279736,-1.087878711625754,-6.827983258921298,-7.584297980205723,-5.198132253809689,-6.889041869035639,b
-7.597901523630765,-6.024881123830132,-5.807268837938979,-1.1553288831104163,-6.74582218723603,-7.8977773230171575,-5.5653736599639005,-6.939799513627408,b
-7.32979809198514,-6.081312069503216,-5.534018326505019,-1.0992915505182095,-6.422630853523346,-7.9693816814207805,-5.702041583333839,-6.869368029899869,b
-7.0633421163278625,-5.981284416812173,-5.186724173916012,-0.9593831587137697,-5.9881276003403325,-7.879333430256255,-5.691568450907064,-6.76398885606333,b
-6.8288461721932,-5.7665129926707195,-4.856721635046127,-0.7852415941879884,-5.569942527567852,-7.693723944223285,-5.627195846479635,-6.699747363143048,b
-6.652780123361241,-5.470167953503888,-4.607283557227354,-0.6066760634726179,-5.225378179792716,-7.426659242304024,-5.563301658361506,-6.702139713968629,b
-6.561056652388343,-5.11657402634102,-4.439139039781872,-0.4155551340281954,-4.923238354652712,-7.057866819425558,-5.501244831874808,-6.736016973866877,b
-6.568366348017219,-4.719837443846009,-4.304616401225234,-0.18393171527601182,-4.5949805049005885,-6.598152330555456,-5.4159758348430245,-6.742888841716298,b
-6.68646776174486,-4.307801867957142,-4.168711399979334,0.09286771159492861,-4.218853076388865,-6.139858233302698,-5.2964104715459,-6.695849567660926,b
-6.944549588669814,-3.9554588257206347,-4.060888413387314,0.3703100245284917,-3.8623412546776885,-5.8306326731234055,-5.165003160173146,-6.6212462825175695,b
-7.373821199651306,-3.761888179820744,-4.057466096215974,0.5793182637981631,-3.6344555402023686,-5.778676255763044,-5.065706094557414,-6.566844331696903,b
-7.958029928712844,-3.767454475284007,-4.207189061269338,0.6850316518932457,-3.585395036075723,-5.9701813133836605,-5.037610022907508,-6.547689352066596,b
-8.619808980962473,-3.910812601863738,-4.480415568560405,0.7219146796978911,-3.651399885246497,-6.276292380290385,-5.097242030245604,-6.521432832935514,b
-9.273529180908447,-4.091469966403719,-4.793891696598932,0.7674883634984322,-3.7009169941007487,-6.54626650791981,-5.23683225420328,-6.416020820746202,b
-9.877858563752191,-4.2627968117744715,-5.073789997048907,0.8819039675415794,-3.6350170146516563,-6.7054201761871015,-5.429428428684091,-6.182864103387997,b
-10.42136582624405,-4.44387382191334,-5.286233694260435,1.0756238481118319,-3.44705576256788,-6.776750139267916,-5.631588925117838,-5.825711895546287,b
-10.872496589312036,-4.655987723386226,-5.418733442557553,1.331838684364623,-3.2000276225833737,-6.819848881223893,-5.788636761223463,-5.383142697959231,b
-11.167345318409243,-4.875588544935417,-5.453268209932043,1.6483793071391204,-2.9618211294706533,-6.8548625124459495,-5.854924520774489,-4.893245601994048,b
-11.243856641535006,-5.04234262084886,-5.365200536344356,2.047497441909626,-2.761452045845813,-6.842073548146845,-5.824176810013575,-4.38530225579558,b
-11.07488962671374,-5.086670198565828,-5.141618500865829,2.544353133260044,-2.589940070859103,-6.721303712786063,-5.73755592208405,-3.902554740592347,b
-10.675556351929675,-4.952694267230032,-4.794063254765906,3.113671434350553,-2.424026299539754,-6.452877161592309,-5.640620917585099,-3.511380765696883,b
-10.094323571155785,-4.621666962032236,-4.351308771831344,3.6959514797803577,-2.2401757543209713,-6.011606753483655,-5.5093785975989435,-3.2620089867574813,b
-9.391717841102855,-4.119100727496499,-3.837736476790775,4.241442056954336,-2.009281658321763,-5.353134246276801,-5.213961353446868,-3.1289914950860753,b
-8.612632807903033,-3.4846243681536606,-3.260358829795661,4.748329488632742,-1.692502860272855,-4.41465538931484,-4.573766813315865,-2.9982225293457647,b
-7.784724036198819,-2.741177355873338,-2.628003392447506,5.252597217393231,-1.2632705458894147,-3.17528112338392,-3.480768126226228,-2.730655117967598,b
-6.9584981810535265,-1.9187207601760334,-1.9943290829003122,5.770657504573113,-0.7484189718437124,-1.7260376337123067,-2.0009354991585915,-2.260737902869509,b
-6.238599228106835,-1.1057236598010967,-1.4776113968117586,6.243246932901654,-0.24573794697643425,-0.27331959051489585,-0.37420125404508536,-1.6548380615380196,b
-5.74766673989957,-0.4432539659994667,-1.2207895483860731,6.53557802760479,0.11412499770760945,0.9447862933208093,1.088317385008207,-1.0859198607885923,b
-5.552096185423013,-0.051258918155876285,-1.3185150678473423,6.503843417286875,0.2373451449305723,1.7679294545160125,2.136207235289896,-0.7412963820014872,b
-5.637312818018189,0.025799073502522064,-1.7777935026772755,6.080701469510655,0.10659634019449611,2.160662756712531,2.655919305385905,-0.7250823201344353,b
-5.95360323240779,-0.19829152913332532,-2.5397168920451434,5.317045639241482,-0.24087029511423452,2.1650197904390693,2.658770167689437,-1.0185409593495907,b
-7.116937240613194,-1.3833459523832814,-4.632226646705408,3.379459335791003,-1.4416872573605124,1.0933353841241213,1.4031783717850683,-2.1031904644820187,b
-7.840804633678881,-2.1849289384378197,-5.756287212348354,2.5389429648288844,-2.248446822089414,0.0004043152098332392,0.2964999211029582,-2.700718937948069,b
-8.505184429275824,-2.9713530309863274,-6.759666335783118,1.9424125250363162,-3.1219400971172453,-1.3780044342359907,-1.0096292954600918,-3.2837660727606517,b
-8.505184429275824,-2.971353030986328,-6.759666335783118,1.9424125250363165,-3.1219400971172453,-1.3780044342359907,-1.0096292954600918,-3.2837660727606526,b
-8.969862370879289,-3.639733905953551,-7.525404887582795,1.6362340778006133,-3.9631485598493112,-2.8471603282507822,-2.3986495177893685,-3.865331146850849,b
-9.13622324774896,-4.131865798141277,-8.004364701844915,1.6061685879397445,-4.680140379578409,-4.188834282585852,-3.7602189772843024,-4.478488396778552,b
-9.00375128923965,-4.446996278146647,-8.23571021879053,1.7908252394779347,-5.235754298077479,-5.272391401323891,-5.012727698988529,-5.143099473198452,b
-8.689599878645739,-4.643210380654315,-8.309756552020492,2.114460342713492,-5.649139192180092,-6.088391888507555,-6.085539723733053,-5.819060413959121,b
-8.365727554540792,-4.795842530421027,-8.287538685539307,2.5287674973972463,-5.9406344360588506,-6.676024411223667,-6.880082828291608,-6.383796595885763,b
-8.140172380275946,-4.916670570652837,-8.140817297544078,3.0342963118384043,-6.07186915880408,-7.023331740382865,-7.26941945288998,-6.676017463389821,b
-7.993978069401871,-4.922542008496375,-7.78224838156125,3.6535802651327187,-5.954323760287207,-7.049557742097309,-7.168461294231106,-6.5963102445940525,b
-7.8447585002880675,-4.720044481451266,-7.180480258593396,4.364276632478089,-5.540036375468702,-6.698773209453039,-6.632024805187588,-6.196374074504809,b
-7.666647858900589,-4.33018997814313,-6.456680639483618,5.048298529775163,-4.915655197510148,-6.057476387959707,-5.88977592640799,-5.68300687222487,b
-7.537680946622011,-3.91150473625727,-5.854600404191048,5.518583210125245,-4.298025418461689,-5.3689549162550705,-5.259100319254061,-5.3181574994932825,b
-7.578001748506685,-3.6530006128344703,-5.589404752264574,5.626458672597339,-3.9122239909748044,-4.899427681381756,-4.970720492121717,-5.269496796393282,b
-7.848578904783361,-3.6417989029031355,-5.694362122203223,5.377463160950505,-3.8411452509957025,-4.747929641594293,-5.0230509302142305,-5.506073684699953,b
-8.287859985082832,-3.8060454877046004,-5.9872590379756385,4.962404085292033,-3.9665913585294925,-4.761014972183162,-5.180567360140432,-5.813419252366506,b
-8.725208364554442,-3.956914029732078,-6.187021977868026,4.662666602669115,-4.056688526504665,-4.64549632640041,-5.139126734320881,-5.929589553157578,b
-8.984125398239884,-3.9151281149296,-6.111222208776799,4.674971343498408,-3.9500614701134538,-4.213884613779617,-4.757271342676808,-5.720993640411384,b
-9.032166916011684,-3.67030670816618,-5.827682118104366,4.96578539331212,-3.7098468776921143,-3.5754195622829776,-4.1891256068130645,-5.2826145500844195,b
-9.052862807351314,-3.4502585970772195,-5.642233742774746,5.26520481053152,-3.62160119510673,-3.108283365001083,-3.8099825245204064,-4.891507901463871,b
-9.336771592750617,-3.593059403961844,-5.902447719438059,5.22769622139289,-4.009418159725073,-3.2111421913165232,-3.971457779953165,-4.837044069717471,b
-10.055496280673866,-4.289356896398937,-6.7423856453594535,4.664714403252463,-4.988812841925035,-4.009145544032631,-4.752014771223982,-5.230891299650952,b
-11.114125947572873,-5.4145329680157745,-7.959076939642616,3.6872878660581074,-6.341313351268946,-5.233905605531605,-5.878359165198556,-5.914887605313321,b
-12.20671305523068,-6.594673416661614,-9.117263285881414,2.6516887693525697,-7.612631250877183,-6.37040319857436,-6.875785246804753,-6.531010348585683,b
-13.015155770372848,-7.435467582164149,-9.805984692570068,1.941009591586186,-8.37054681003721,-6.9690571025062,-7.350198708521238,-6.722899797519638,b
-13.39713885458124,-7.73731797726744,-9.87044944225622,1.7314246409212,-8.446538540263445,-6.905734170110864,-7.216590662528452,-6.349232242093994,b
-13.44787479499789,-7.57767559375047,-9.473707105535137,1.9021748046830766,-8.001240819411315,-6.412506080062054,-6.720715680155278,-5.564854637076548,b
-13.404925739647814,-7.231761304919756,-8.956744487898142,2.149150869873201,-7.374985635093383,-5.86591998210121,-6.237378280499634,-4.70467098254804,b
-13.456376758398036,-6.973867058648471,-8.595167891076807,2.2170301130247987,-6.833706492755171,-5.49577848630811,-5.989426307206021,-4.0488400990771884,b
-13.596624433557036,-6.887112861075808,-8.427396216646612,2.075112683355209,-6.398878639168498,-5.234144679309976,-5.896165165781909,-3.6421562224780444,b
-13.658815079776772,-6.836799953570434,-8.280312329078669,1.9070469939478596,-5.884462172666332,-4.806312672926896,-5.659792905067415,-3.2974431470846417,b
-13.491957067392303,-6.628106952237857,-7.954176380654589,1.9389658821702986,-5.091999088900366,-3.968352450587949,-5.0080395609554005,-2.7666974294453017,b
-13.103087628074467,-6.187021174861708,-7.397577855553626,2.2571222016987895,-3.9921557965776904,-2.6978132593737776,-3.9001995746673104,-1.94232191034907,b
-12.639610284977005,-5.604853803448021,-6.741144913445943,2.7504610870277313,-2.7617559931474096,-1.2199769449169169,-2.5612850660671698,-0.9472417932247857,b
-12.270767485156709,-5.059779553303646,-6.206403499130814,3.1919621898479686,-1.6849778947864862,0.1059127967314839,-1.3531599623033475,-0.06707427996487744,b
-12.100042288819392,-4.726639136818956,-5.989053398258994,3.375662153366192,-1.01300784904114,0.948415381947517,-0.5864624220576737,0.4161075775298939,b
-12.149948661837106,-4.71741586303149,-6.180894439009721,3.219371602764677,-0.8610215977808652,1.137661199928589,-0.3826545059221037,0.3762998478946723,b
-12.37798157732903,-5.030742068417338,-6.739633743835171,2.788363448040074,-1.175422390210817,0.7238077269121652,-0.6499896278555997,-0.1084178821645588,b
-12.697400664233376,-5.530225610554671,-7.504371833357693,2.2448491308531224,-1.7733714976546555,-0.06103384491165429,-1.1681716432613538,-0.8239940542848496,b
-13.000680665566955,-5.9953532210136595,-8.249460425385383,1.7666843078334817,-2.4258832157905728,-0.9130150890363999,-1.7104871299385525,-1.536085117318786,b
-13.17082417673106,-6.219440767017945,-8.75278172604133,1.4858354191152667,-2.936079278975254,-1.5787695787875369,-2.12469677020415,-2.073496629962731,b
-13.084542210150806,-6.085543902385519,-8.86200649210851,1.4599488833157124,-3.188059994832028,-1.941618847253021,-2.3552854478810854,-2.358956504404986,b
-12.651972983096586,-5.602214594125129,-8.5587724612865,1.6557224344617825,-3.1759015516989857,-2.050021138569683,-2.437702827386485,-2.413809421980118,b
-11.892034084920676,-4.909803558808283,-7.9900382186514065,1.945047471924968,-3.005937618449102,-2.067124080843411,-2.4717130788351973,-2.3435012378904108,b
-10.942589387574639,-4.220431886770216,-7.39954206962819,2.153184451343064,-2.8349121267008153,-2.1389858300805193,-2.5521075834595996,-2.2806648913977403,b
-8.841743544433276,-3.192302501506677,-6.619520551134326,2.00888986847817,-2.691128921620401,-2.2318334706974916,-2.72618482171304,-2.3335087298440826,b
-7.470507145693238,-2.5637856166711392,-6.157413601024109,1.8346192864879747,-2.4872020396742798,-1.8436480716644563,-2.5207138249965717,-2.2548403466974025,b
-5.634731686832914,-1.6047516782172129,-5.348019761200162,1.7895950294447105,-2.0006140771534424,-1.0152796437948517,-1.9644233744353925,-1.925269134657513,b
-5.634731686832914,-1.6047516782172129,-5.348019761200162,1.7895950294447105,-2.0006140771534424,-1.0152796437948517,-1.9644233744353925,-1.9252691346575126,b
-3.3130754262852635,-0.32854648375166173,-4.143310886817585,1.9132104623485067,-1.223261269805688,0.11728267386251981,-1.1028588308343412,-1.3107141991342512,b
-0.6575581846268964,1.094915205186029,-2.6845370510913087,2.1312187646788887,-0.26330140595561935,1.3080870033515357,-0.08755594263461916,-0.49467824063297616,b
2.1246382876555776,2.488297357591583,-1.179654504561001,2.3364933127224883,0.7455862396562214,2.3695210163548213,0.9250496862570576,0.38295100143629063,b
4.899256242751799,3.777499190355966,0.23788351850561823,2.4773460099115856,1.7274414282388046,3.270396068750234,1.8605876223385422,1.223617588899962,b
7.669771040534357,5.011041186605973,1.575671941758852,2.592856650536265,2.6933935467042103,4.108492232882088,2.745577335321544,2.0375634106944793,b
10.556716410236884,6.316390017271209,2.950736785868373,2.7844809259302905,3.7177482573222447,5.004465473940119,3.6573072677354097,2.931449847116607,b
11.04447471178246,7.81611989375793,4.492651471807822,3.150842300245377,4.882778918450243,6.009019572347985,4.652287926517465,4.024450632282182,b
11.37238751883077,9.539857111377133,6.252983909836761,3.7320737803654263,6.226115479974576,7.086595898113595,5.730247613759891,5.357181457269093,b
11.467065682857918,11.407360115967169,8.18894738082063,4.503419195925708,7.722902430178989,8.167816746953378,6.85018644020622,6.858589672852555,b
11.248161770765403,11.314521331514676,10.220653078284723,5.416706318166942,9.304272914213964,9.207857107565022,7.96397865453918,8.383224055498015,b
10.705047444816518,11.062972997043854,12.290243736397779,6.444550039090018,10.8829339010837,10.1963486543124,9.026415350143834,9.780513587887542,b
9.886511653197195,10.666017212822513,12.17965527176656,7.585758150718222,12.367125759637261,11.124288046542663,9.980978749376789,10.949391403772847,b
8.829829897868304,10.129071827830966,11.885537392620973,8.837001438903721,13.675579625054558,11.958279668668318,10.754814126901396,11.855694507647339,b
7.51478919634197,9.42849377764401,11.417904770025215,10.165304625004243,14.76267141236264,12.655134968361438,11.283917505308363,12.515631589733182,b
5.874979974412855,8.53645783757226,10.780874229840329,11.499177486420297,15.629703069944949,13.197405189998728,11.550045116456584,12.96225888024127,b
3.8331716173202524,7.44106434870383,9.980406037186732,12.7338206992854,16.299109689307116,13.60794099561555,11.594002886757792,13.216733698925998,b
3.9819189963680515,6.139941964440415,9.016485573487392,13.753609558062328,16.77715882807257,13.931347120413776,11.493904101452827,13.284027385483977,b
4.094612837468701,4.63324286417437,7.8699305492914196,14.481976770929162,17.055921978669332,14.20889342351776,11.330173096972477,13.178326158193599,b
4.173639863262615,2.929313069503103,6.503909214992464,14.93689593681383,17.15896298895717,14.472278801819888,11.16332912513785,12.95798716052665,b
4.221386796390208,3.039128801363672,4.8829177922409075,15.234780578383402,17.173786225707307,14.748497906484,11.028027513028437,12.73340398365327,b
4.240240359491893,3.12268231221796,2.995566277908385,15.51204903516049,17.220003504575942,15.05197651325058,10.93149535249135,12.626204658114151,b
4.232587275208084,3.1757477736739936,3.051820566294521,15.811907945202572,17.36875185000841,15.362671953042081,10.853522588290629,12.700380737861568,b
4.200814266179199,3.194099357339796,3.070222511038292,16.02998267773448,17.579259358340785,15.616756073860179,10.758209319101194,12.918515400513177,b
4.1473080550456505,3.173511234823393,3.0488800871899344,15.974140913298402,17.70855727230413,15.730732447832102,10.620257575578696,13.164591626434845,b
4.074455364447851,3.1097575777328097,2.985901269799682,15.505745916949206,17.598487112521532,15.646977434492388,10.447758856480146,13.323167423138349,b
3.9846429170262168,4.879657270425836,4.709271709195438,14.661693156422354,17.18476814134325,15.365886801389042,10.276647251395381,13.354924979265892,b
3.880257435421162,6.258996442151867,6.096801688340453,13.656659920449368,16.541208452278347,14.93780858056255,10.13193133549518,13.30512409232179,b
3.7636856422731007,7.407531021634118,7.307840813511072,12.74448920310697,15.809335416187338,14.417976236943465,9.982457412962232,13.233736489677941,b
3.6373142602224475,8.477902953278772,8.487099932617987,12.034386863409434,15.064521226207319,13.81786134372613,9.73087124251464,13.125163129579473,b
3.503530011909617,9.52295155071489,9.682311906780644,11.412845260418445,14.241342841297604,13.093811330490457,9.25964732305096,12.86049233496519,b
3.3647196199750233,10.499487051359036,10.848435905518244,10.643925699402791,13.193031982243662,12.186346429872438,8.50784976980342,12.287466829683826,b
3.2232698070590815,11.342579265939982,11.91418852341933,9.56639655527336,11.832116862907458,11.078529860289496,7.520651299342191,11.339113126439257,b
5.28806711405494,12.020922441632354,12.838779273136776,8.224302994131142,10.22688244302562,9.822162994201015,6.42882537402995,10.104698471925635,b
7.251624108583667,12.536770533989673,13.62009717106034,6.833003437107445,8.57701854109295,8.510628564666188,5.3705705347536865,8.79044910058851,b
9.103326783564263,12.908079533623447,14.273159655624756,5.620989922099659,7.095595391467791,7.2283933367527125,4.416070825732648,7.596236000716962,b
10.802830387583658,11.284035752601833,12.983143959558316,4.674349378139226,5.887980984818157,6.025099627760701,3.552694471049832,6.602767597114155,b
12.297734194813067,9.927465808621738,11.885877275773904,3.894230607941098,4.910911971631269,4.928890117442567,2.7355729284553805,5.752014106345644,b
13.569237969069878,8.723031587620095,10.848187389728121,3.0891715662722423,4.034846771085659,3.9683275209460747,1.950375213762762,4.9230388630718025,b
14.674061517223759,7.564661101663551,9.774360866253744,2.1264302780427045,3.1551218418353564,3.166421178823658,1.2271624383251276,4.03082519018169,b
15.73956806352535,6.447475691105112,8.682063412133541,1.0260467107579707,2.2596993990217937,2.510143090281988,0.597453242687847,3.07255835900671,b
16.898013769288816,5.451919568521368,7.6733175897128,-0.06564085811052651,1.4076884098484084,1.938648608540199,0.04911554311965762,2.105555806825291,b
18.20943341628014,4.6565232462734905,6.846821908876568,-0.9827714835689629,0.6627481120803547,1.385262104759705,-0.46196541605253305,1.197750467823986,b
16.80797788465869,3.8001072876343898,5.876470977868234,-2.0098771022565005,-0.3858816005614566,0.4660300374995825,-1.3286114618824354,-0.2649894994845027,b
16.265216670975143,3.7957675602978904,5.727116049151164,-2.175532954641595,-0.6408697603381208,0.41104591554542563,-1.4708148627198523,-0.7635005246772156,b
15.800986667769013,4.078195332091055,5.777527517073475,-2.205451853617956,-0.6794133499617626,0.8261862301331512,-1.268951494825759,-1.075276147134504,b
15.800986667769013,4.078195332091054,5.777527517073475,-2.205451853617956,-0.6794133499617624,0.8261862301331512,-1.2689514948257588,-1.075276147134504,b
15.452761298019709,4.570250649988505,5.983837724241591,-2.1706290729072455,-0.5044623972132432,1.6786860203171368,-0.7433095045866034,-1.1949018768119002,b
15.268820859068677,5.156634757650271,6.285521978628694,-2.122440932656715,-0.1573733810762595,2.761903384502518,-0.03922602690722501,-1.1422296739942333,b
15.262703808934706,5.74087084315133,6.622542374538362,-2.090215745303244,0.30660485520181335,3.825867100267793,0.6756349572219564,-0.9453303194542535,b
15.37721754559856,6.266700653158002,6.9457924798341795,-2.092183711071924,0.8535829551309551,4.7467616089180975,1.3358076747051206,-0.6122507443282655,b
15.499430395601838,6.7118459266722725,7.22134119960795,-2.1507279130456394,1.4861828883876478,5.591594199071787,2.0132353338072657,-0.1277036754216872,b
15.523579357260186,7.081076299687052,7.4343195749827675,-2.293981253701367,2.2230088396836196,6.518677944369403,2.826993357818617,0.5125762288627549,b
15.401504808493081,7.386158266767954,7.5873351637995174,-2.5370337829943432,3.0548382161089664,7.599189398613078,3.8053700824460117,1.2620580903704046,b
15.143857115283486,7.60936732766167,7.691842685508452,-2.8586268926277976,3.9141474503989846,8.711298987231578,4.820715926957957,2.0195375841386136,b
14.797507619200445,7.695747439912877,7.761446340517956,-3.200773971584038,4.688892607239672,9.589214734431158,5.650859761057518,2.6653293557975353,b
14.420902348508793,7.594112935995517,7.804820252067392,-3.506101567081847,5.27047260702402,9.979471979597509,6.114105839634732,3.1062600341526343,b
14.039009505941603,7.287835955364963,7.803640710221889,-3.7749684495931817,5.590941683999682,9.780467312703133,6.171997568055263,3.2998215904284622,b
13.587048970804156,6.767241189090997,7.686528271817393,-4.094868745429149,5.620019798273576,9.068443468488264,5.92783196470677,3.250726692480442,b
12.91269318814572,5.9950765048867005,7.341343568400925,-4.602694490815269,5.339849693864422,8.00901234859767,5.531866040450945,2.98895169823757,b
11.870124120688114,4.935641504680737,6.678650183940607,-5.395744495421374,4.734019848150839,6.739109760869576,5.071106202824562,2.543481681710626,b
10.425890057657046,3.6143006904024033,5.691324467410221,-6.463464127342034,3.799568239901066,5.313459130775926,4.524852507649761,1.9265982422973207,b
8.672396207106864,2.1191943869508085,4.447573673370316,-7.703004855586938,2.5619762421300303,3.7400188819194162,3.809430514826334,1.1371747570663016,b
6.7530455832228125,0.5433425556301025,3.0286757241463413,-9.00488449721706,1.0784670661088196,2.0497188079272215,2.8684462542062876,0.17871401771807244,b
4.789816691698654,-1.0521929078489103,1.4817746623192054,-10.327492018947229,-0.5672231496166782,0.32999489632737705,1.7405007805985657,-0.920699017189856,b
2.866687381720952,-2.621534644178753,-0.16995296320549916,-11.692446785052601,-2.2749079597933854,-1.2995058293267876,0.5607749791836136,-2.0990591384064197,b
1.0484892433778759,-4.110352131102623,-1.8834238719533438,-13.110763265156445,-3.9453367508989836,-2.7370874652623116,-0.5026759198438276,-3.270096063900554,b
-0.596096386131606,-5.4550500304261895,-3.5659143096828734,-14.513007281926429,-5.499941425216628,-3.9311526397002523,-1.3379643919159185,-4.352020023422063,b
-1.9819226593291623,-6.583794335084309,-5.08528389138351,-15.749768789991842,-6.888476320114026,-4.8742370403004,-1.9436730518554175,-5.298818302556862,b
-3.023574500274342,-7.416385565650456,-6.314201670904943,-16.663761984146632,-8.076926019387278,-5.568053041652666,-2.402679454764116,-6.104438684366045,b
-3.680316248574112,-7.888367098186568,-7.1746356541187595,-17.169603097614953,-9.022480714372168,-5.986544273820153,-2.785244697258851,-6.765510988660767,b
-3.978333927536211,-7.982605927697975,-7.640942596307964,-17.271372264176822,-9.651511645714356,-6.068580118078046,-3.057265860567313,-7.232426788742411,b
-3.9685076982861616,-7.719608320944895,-7.7010404845186695,-17.01285627810154,-9.864103590276544,-5.758355737121998,-3.0843645124406445,-7.407104215447802,b
-3.6722218002293117,-7.122829515297601,-7.335548221277921,-16.427143838669007,-9.585320234438498,-5.075350959409398,-2.7507983417806416,-7.212391347139705,b
-3.1043929050721157,-6.231315342292711,-6.5638254780360965,-15.547059422238783,-8.844358586974897,-4.157746901067819,-2.102330816913094,-6.6817796975739565,b
-2.3572617486551755,-5.156767798370295,-5.511909895820058,-14.457447691370334,-7.81117777808335,-3.2274919338329155,-1.3802368897094341,-5.979973760792097,b
-1.6273105912671444,-4.085974580412838,-4.404280991175318,-13.3135410834791,-6.731804605895595,-2.4865494907958037,-0.8960909125371177,-5.317894974320734,b
-1.1308148923915846,-3.187620961190111,-3.4580255326115052,-12.28727659363433,-5.79573462191738,-2.019329285859592,-0.8357729987619538,-4.823733934018299,b
-0.9901174975269236,-2.5189920261728806,-2.7711295367296183,-11.484156462921412,-5.043066666480297,-1.7745446894639592,-1.1443975536183246,-4.474755300142069,b
-1.1894331617748966,-2.0295819381939197,-2.300417367875137,-10.899849688169573,-4.382733252759094,-1.6300055855049354,-1.5746634452813262,-4.140198049669285,b
-1.6062640448640875,-1.6328805321683213,-1.929871131660884,-10.443574954476778,-3.6909999599304264,-1.4794821850706108,-1.8502178478372024,-3.690512513761999,b
-2.0791265174093767,-1.2652883298421156,-1.5640411324265897,-10.006448187403397,-2.9066157178674303,-1.2787659827201705,-1.81770026385433,-3.0809146672160463,b
-2.494605094995446,-0.9162355606111638,-1.1911591693348393,-9.53478769021895,-2.066957203409843,-1.0331365846257554,-1.4885824846220166,-2.352321134209821,b
-2.8611373147458203,-0.6440963676627969,-0.8886045635487854,-9.068373570106246,-1.27878368372663,-0.7529899624080961,-0.9688014490525907,-1.5708800112938497,b
-3.2973225192772304,-0.5484091853517435,-0.7638744931209159,-8.717092326120863,-0.6484547917038093,-0.42126134301908547,-0.35774993167253527,-0.7771705228109546,b
-3.9167588627234453,-0.6826010606733972,-0.864515421209985,-8.586604861054969,-0.21619312949575603,0.00014852079127980478,0.29877092607788697,0.006696491703240992,b
-4.70826141267523,-0.9818769000713718,-1.1266690343295351,-8.702477508941909,0.06223552021766937,0.5384386222506408,0.9894862438217924,0.7355149475916634,b
-5.520779332793959,-1.2893411780745967,-1.401894990147095,-8.98132978960552,0.2824262541632273,1.194383973313808,1.7068247729938206,1.330550641654403,b
-6.146626571521615,-1.4495402102794028,-1.5296487951221376,-9.261592977291068,0.5438135109363437,1.961258369802016,2.4453814923449873,1.7259719137269562,b
-6.311660346538288,-1.073637840503809,-1.0056137456679817,-9.25416946381185,1.3946793764452472,3.806252553603027,3.95224748404463,1.9590016332155056,b
-5.936204842346693,-0.6485887946111587,-0.44472501264556674,-8.962031400052485,1.8881856798009753,4.737131591466939,4.563977410773625,1.8628690299078225,b
-5.536459483686938,-0.2891080312569748,0.09366501167689086,-8.696581675548675,2.2119197574888676,5.40232106386732,4.828971757620107,1.5684722860759415,b
-5.536459483686937,-0.28910803125697465,0.09366501167689086,-8.696581675548675,2.2119197574888676,5.402321063867319,4.828971757620107,1.5684722860759415,b
-5.308206106605435,-0.15872747213177638,0.4472778993433281,-8.64665121290156,2.1955397596452677,5.56092013271006,4.56505318267016,0.9734095762315091,b
-5.242897816767874,-0.2615463509076311,0.5975901286922867,-8.849626894529175,1.8079172091459221,5.122074720833493,3.7784836273888467,0.05029257663908977,b
-5.127885280406893,-0.4237321474407798,0.6873472684878852,-9.151906994056615,1.200939386710251,4.232728460466381,2.7219078181511733,-1.0740619978605266,b
-4.724240541695178,-0.4317109823715334,0.9071628325285743,-9.317322833814446,0.6190439406656569,3.2039073392957653,1.7679922066370561,-2.159610370874254,b
-3.9603624083360884,-0.19414098998516988,1.3466368700400042,-9.197271681513334,0.24348630987453027,2.319876594132759,1.1751607105280684,-2.9915222760348903,b
-2.9855709775214807,0.2104963359593089,1.9281687972277102,-8.8312819170465,0.0893263775441693,1.6740443581125013,0.928813056159283,-3.5036398416376593,b
-2.074954893155419,0.6004351206156034,2.4570715185855847,-8.415411373338467,0.01844645323104267,1.1534666330556305,0.7895781255061146,-3.7866617305829386,b
-1.472350620632675,0.7956829332462101,2.738840470400926,-8.175868511636377,-0.15424090161506127,0.5729531636510142,0.5088414207921661,-3.9830719998611537,b
-1.2582231636048438,0.7136765842869182,2.688940913885723,-8.23783087880927,-0.5382174975768719,-0.15770104020127534,0.030083735305898206,-4.169022502192823,b
-1.3152107947920648,0.4153171790150479,2.3687543676196996,-8.571607444501563,-1.1117650183657215,-0.9687909502987087,-0.49146349427644365,-4.327197238848668,b
-1.4306778243558218,0.04832261259748682,1.9199983575220414,-9.044884654802745,-1.7694666046771321,-1.7088457649385789,-0.8564539247845069,-4.421654619562951,b
-1.4705864953192083,-0.2891131796081722,1.4482022918435926,-9.533582400352456,-2.4236521165703344,-2.2796771742635222,-1.013824919613765,-4.4859556600455175,b
-1.4726425369235112,-0.6323060860668333,0.958915945463988,-9.998798774446854,-3.062075375623244,-2.698965942962146,-1.0974931178200513,-4.627490480910787,b
-1.5803110656616925,-1.0920230625991008,0.39664790765813673,-10.474835994781477,-3.7166403834623365,-3.0432482052427376,-1.2807708671258242,-4.941116337142157,b
-1.906665752429646,-1.7352857207295027,-0.2750970673091025,-11.002029203491997,-4.398131931270344,-3.3474141969317754,-1.5996348393778386,-5.420676727405683,b
-2.4649563274424557,-2.543694310761988,-1.043841314570748,-11.580881906827344,-5.077749869180797,-3.5723980558382977,-1.9207602429682449,-5.960060046144342,b
-3.192631268205626,-3.4589566852084843,-1.8784529847769005,-12.180819054147857,-5.723709513934533,-3.6679821156662973,-2.080673184393588,-6.446029586519245,b
-4.004074268747168,-4.42034848479606,-2.7601338533521695,-12.773355938838623,-6.334021314152209,-3.6507848621088526,-2.053704776720873,-6.855465058606133,b
-4.829913006123606,-5.356913381637967,-3.6769343333939077,-13.347596366651942,-6.923153765692407,-3.6034965986221272,-1.9834877908307231,-7.265017754270447,b
-5.639634230430049,-6.182309155446612,-4.599260370763716,-13.896809864662128,-7.479270030255307,-3.588443450775178,-2.047082781813792,-7.7607205156114745,b
-6.4329377479085235,-6.815524082973499,-5.466126515959803,-14.392303348293236,-7.936582480486675,-3.5620482547262156,-2.2779697760688244,-8.325455836824009,b
-7.196766177696484,-7.200625531465228,-6.197656330779163,-14.771479530178818,-8.1941926301093,-3.3841378180751027,-2.511851962257907,-8.80636736550196,b
-7.882521333025783,-7.323971629637553,-6.739357850170974,-14.964541944269254,-8.182057935416026,-2.9311489664229455,-2.5094247486330032,-9.00104154413532,b
-8.4528479370858,-7.248567073076887,-7.11863604473844,-14.956873332498185,-7.93510443752613,-2.2228931183233565,-2.153590407550923,-8.801456263638004,b
-8.947412164823266,-7.127685381254997,-7.457344231096085,-14.837619115511933,-7.609697759385547,-1.4499163172835094,-1.5541601476452676,-8.282842729880935,b
-9.467847180343927,-7.133420704857947,-7.899829276702908,-14.771796620843023,-7.406778692873859,-0.867493527916583,-0.9754084713854694,-7.666159630519362,b
-10.076803042384824,-7.335081347901587,-8.500064013711762,-14.892062073393884,-7.448377534593727,-0.6357829698710507,-0.6520230702835521,-7.181999544729604,b
-10.717327183760556,-7.654573547964995,-9.169527756547827,-15.190593683384204,-7.706424792271834,-0.7318633583100562,-0.6422819220373872,-6.937320384094572,b
-11.234375814201023,-7.951130618856903,-9.737227193627952,-15.508587516179384,-8.040000534589058,-0.9963221963696738,-0.8207794459576293,-6.877725749269421,b
-11.47090300350195,-8.138722915501003,-10.067976591819349,-15.642371370923197,-8.301844883030238,-1.2631565287027868,-0.9928109203564093,-6.858809197518833,b
-11.360174163961313,-8.221494379508762,-10.139730496199444,-15.483222698438135,-8.423558801963967,-1.4597541443723254,-1.0258368853844053,-6.755798088274174,b
-10.960642996837166,-8.242917668225184,-10.025541759293152,-15.077002575310269,-8.41918111570264,-1.6043084154807736,-0.9018883600402962,-6.520660844400965,b
-10.411183493586122,-8.214641333597935,-9.801824366570923,-14.556662730291682,-8.318331486706615,-1.726670975790204,-0.6757613620539004,-6.156379326804485,b
-9.823071597368841,-8.072616601074197,-9.457441211625257,-14.008868506540171,-8.095253458628521,-1.8015456561543712,-0.4004015884732155,-5.6600600574795354,b
-9.190788557442904,-7.68874075329077,-8.883537982359591,-13.394070542103815,-7.662507371514211,-1.755796650674808,-0.0884912080261718,-5.006736980904206,b
-8.417244265879251,-6.955452513147497,-7.966465259709693,-12.593201523908615,-6.941210193088321,-1.5298449743654499,0.27582895401053537,-4.187356720792598,b
-7.4406658395676235,-5.8941784580455785,-6.711010982003619,-11.538753204660273,-5.944134769674877,-1.1225865498181788,0.7112232777025698,-3.248537689357648,b
-6.330214329882727,-4.674343302916034,-5.2791078249436865,-10.308829375970657,-4.788552660373376,-0.5758731165318383,1.2307070736655308,-2.282155632846482,b
-5.252659137715284,-3.5004946778220836,-3.903390243683031,-9.098486941720424,-3.623627540072003,0.07831249043376518,1.844449064642824,-1.3716066189758724,b
-4.36371790735619,-2.4797461522763635,-2.7561810423661077,-8.098740645953203,-2.5449909468104486,0.8477862569793329,2.551818733565032,-0.5490357963161514,b
-3.743237592609533,-1.608209162432854,-1.8886391229476622,-7.39450669064284,-1.5790605966796822,1.7509826027752813,3.319829694007449,0.19277703521222733,b
-3.410490929688796,-0.8680880188507848,-1.27349662315835,-6.96472505854599,-0.7427559220685526,2.7503979214918566,4.068430226413991,0.8430137140208334,b
-3.619575930697624,-0.03712153123576955,-0.7715460357259658,-6.82239108994207,0.20139793899213737,4.437057945783354,5.059076678427789,1.5154191542855755,b
-4.170867673195043,-0.1348736386929581,-0.9739921941253364,-7.194391292797041,0.08911801874718242,4.7724635506128665,5.14618196182079,1.3271193825385283,b
-4.980798253198048,-0.5814082293882568,-1.4953377296053627,-7.904123958222556,-0.416006724825817,4.702427463032163,4.978667475264563,0.801394944244986,b
-4.980798253198048,-0.5814082293882568,-1.495337729605363,-7.904123958222556,-0.41600672482581713,4.702427463032163,4.978667475264563,0.8013949442449858,b
-5.926009056280607,-1.2179315369019998,-2.212347205939717,-8.833263937988466,-1.1307420885801873,4.364320901147698,4.654032422038475,0.11625423912233894,b
-7.944405482316268,-6.1060052316280675,-5.562167893520542,5.640691153117852,-5.444769788515481,-6.949239844946048,-7.531856733340827,-3.9645893518172377,M
-7.262380089871615,-6.070247109422076,-5.328547438535266,5.777329789888204,-5.439778136474162,-6.914892783180635,-7.573148998037533,-4.040127554784973,M
-6.586181440987194,-5.998716259998421,-5.160542749984795,5.763457973445022,-5.448205708803213,-6.838760532261036,-7.608214430687804,-4.211863011901186,M
-5.922780016783396,-5.885928975156199,-5.073550265041231,5.707961081341233,-5.424167503271325,-6.699937656778066,-7.514006099691182,-4.353910057184803,M
-5.318137979083268,-5.783705569139788,-5.1090971579660875,5.643835064273709,-5.3974954175834355,-6.491201219096507,-7.212972276628227,-4.380291066476845,M
-4.828775275851557,-5.730667582836512,-5.276021830755214,5.530383109126114,-5.4298428028713435,-6.192244786372025,-6.707291020140389,-4.2828855015583756,M
-4.510603283822309,-5.7213156890932115,-5.526926817807748,5.308717244698462,-5.551421356867623,-5.7616743836008,-6.072208060605908,-4.122448282419018,M
-4.423632462592665,-5.726398779653596,-5.7928099610195956,4.9488554117619605,-5.733907294980752,-5.169292061649642,-5.422871663425598,-3.9875369732200974,M
-4.6179458119267505,-5.719309811542397,-6.034026874704555,4.461448776434983,-5.912501691486323,-4.443221574795267,-4.8694574739440615,-3.944755544896644,M
-5.106332296169647,-5.697272053323933,-6.261359097766262,3.887257761808229,-6.031107691635006,-3.6808570479255223,-4.469222307749289,-3.9975195221833695,M
-5.849124452044169,-5.70138242518715,-6.513737688686932,3.286011550705799,-6.070864400368218,-3.002276767062245,-4.193335890035471,-4.0685653300543105,M
-6.750150484273358,-5.801133816023682,-6.809306845279595,2.729935852134413,-6.0382346290914,-2.4801721701644954,-3.937859900496945,-4.022750581040557,M
-7.662962382046247,-6.025020297596609,-7.108135474770644,2.2911393591800353,-5.927180005267451,-2.1022115707529085,-3.58869023523233,-3.7298575762869506,M
-8.433956311669716,-6.304355150492264,-7.325290419395131,2.0159335732212837,-5.697790739584706,-1.7918334644036935,-3.102127903419362,-3.132462808347209,M
-8.979463671008382,-6.5087323219997915,-7.391049650494873,1.901345544326939,-5.296794222398982,-1.4679520376650617,-2.5360961485264264,-2.2694542275836307,M
-9.326562412549336,-6.544303535855238,-7.3044076412493055,1.9000377960276809,-4.700985290840952,-1.103034964241575,-2.0017942615253124,-1.2398675732953925,M
-9.56680032941264,-6.416989907817685,-7.134647585864035,1.9543444338293594,-3.9473954483462563,-0.7480867578199574,-1.5768798218620703,-0.1459990417875324,M
-9.777979439375152,-6.225733802126586,-6.985804826728339,2.023478360837543,-3.136448529195446,-0.5152002097049201,-1.258870210625307,0.9297933072052533,M
-10.002670159912235,-6.123210851212003,-6.964301903286558,2.0741444838345013,-2.4129664101113555,-0.5295166061946215,-1.0004908581749838,1.9018778482145915,M
-10.278411468868345,-6.258680112965438,-7.153423515690074,2.055160705335587,-1.924172997721629,-0.8758262482087611,-0.7908842948766261,2.6524717116958376,M
-11.103921078705852,-7.340603813862816,-8.155857850809504,1.5987902378596488,-1.8892540814317809,-2.5306615006028936,-0.843845781509543,2.999233983371904,M
-11.60528802306128,-8.007974805351834,-8.741600076749112,1.1967209881071623,-2.1891004877536533,-3.653075123670031,-1.26546558211053,2.5396289598467074,M
-12.063651375765726,-8.532918058471125,-9.172794282890115,0.8215394811909464,-2.4868545010105154,-4.794774103924551,-1.871043536660968,1.8188885276008686,M
-12.063651375765726,-8.532918058471124,-9.172794282890115,0.8215394811909464,-2.4868545010105154,-4.794774103924552,-1.871043536660968,1.8188885276008686,M
-12.40238384996684,-8.877669758151558,-9.366681683093072,0.5839906077187527,-2.6640416137558693,-5.841041124598776,-2.448901851185589,1.0291012724073763,M
-12.578102730442001,-9.109712843959155,-9.350775809684945,0.5042742132014454,-2.714074373081936,-6.729944376649726,-2.7968047422212345,0.29314892361133194,M
-12.590767644253786,-9.314699071636628,-9.229275281487773,0.49941275925851303,-2.735113783655235,-7.455858224385475,-2.8501356570579257,-0.38581839269095475,M
-12.468412040556762,-9.524155491564002,-9.102428691140094,0.453350856008517,-2.8534645894624537,-8.040628604457194,-2.705290992458731,-1.0686189133577728,M
-12.215414254069026,-9.684902396575847,-8.98561720798545,0.3168915152626124,-3.120967126585447,-8.492887122296874,-2.522228537819723,-1.769058567306209,M
-11.770086448752028,-9.67717863351064,-8.790217853184373,0.15103772505802715,-3.4637460199955106,-8.78959547041118,-2.3962890033640427,-2.394727128839932,M
-11.042620481763482,-9.394626868804261,-8.39578289074161,0.07172376058625152,-3.732820042336299,-8.893973117820192,-2.3075148319564738,-2.7999172697808774,M
-10.015428767131763,-8.84181603503638,-7.759381282119017,0.1466497228576451,-3.8189775041677883,-8.789752739430558,-2.1765148326756547,-2.904805453465598,M
-8.791840338156865,-8.14372199456609,-6.959115594368716,0.3438633573670238,-3.729360402343447,-8.498821876048694,-1.962076475653668,-2.7717137304302137,M
-7.527657670285379,-7.432886248644051,-6.1278342717235486,0.580405930215233,-3.5569446553003274,-8.065778467098413,-1.7071506418944729,-2.565225374705912,M
-6.316886527125276,-6.725766560263324,-5.341361728450584,0.8196096069304873,-3.3741297497022047,-7.520148554455804,-1.4916899937890518,-2.4233239512404414,M
-5.143612052968643,-5.91686366137359,-4.5622325182558185,1.1206985352020673,-3.1474872360863393,-6.847135243601478,-1.3385945657404297,-2.3464763677509213,M
-3.9254007413575045,-4.882030487590343,-3.6793317018566247,1.5934253454537015,-2.7480759828803842,-5.997644813866758,-1.1680996751433295,-2.2019052437007085,M
-2.5962223272492535,-3.583156763412159,-2.6056210927110044,2.2979204729198965,-2.0512077885039175,-4.938672779741722,-0.8538244967202899,-1.8415848563334556,M
-1.1761918829765001,-2.1064052693575945,-1.3636225084732885,3.1755105500360408,-1.0474370884290454,-3.7030454007026963,-0.33249568171574034,-1.2288593130178442,M
0.20987686068200845,-0.6346332431503744,-0.09969905870828004,4.067600155729269,0.1255041090075232,-2.388677784812459,0.3372405521943311,-0.46312438443782283,M
1.3930471345612945,0.6343309971904876,0.988378500551686,4.805218135652155,1.2585898043598842,-1.1035795020539971,1.0202708607148498,0.30539385951928716,M
2.269178516305977,1.5921373924876474,1.7597170810201532,5.293438901058556,2.191800385485639,0.0902379179561505,1.6052815348405869,0.9767618566099646,M
2.8541453248001636,2.2627309795100445,2.185234097811395,5.524288448872705,2.876727896174363,1.1787893188281302,2.0656726806861996,1.5292193850084865,M
3.2219692916799163,2.7255787049262,2.3073613674344156,5.522580736565697,3.339209687266796,2.147087910139559,2.4370218608636156,1.9755805644790236,M
3.398211502443938,2.9941373967472997,2.1597416732995613,5.291933618481859,3.599078489113629,2.936770908999609,2.7493561848737835,2.3163545324672166,M
3.334033261665801,2.9901356579622718,1.7372178367181188,4.818766680267377,3.6368770278472873,3.462520478351068,2.988423776285205,2.5402346565477627,M
2.9793120781980984,2.6399814938547688,1.03914129183924,4.1242563076579115,3.434835599499754,3.682230682002266,3.126421632896641,2.662705635215924,M
2.3587528372048494,1.9763012916179108,0.12709280845177098,3.302720425752362,3.0384357370515325,3.6615639210708806,3.192370643380601,2.755998512391771,M
1.5770541699508722,1.1431767578985665,-0.8673112412455165,2.4988029811625467,2.5678799095647262,3.568237066551954,3.303945568816728,2.9294749897572787,M
0.7687635759444096,0.3217149318996713,-1.794267686801986,1.8327068722406132,2.1578237999401324,3.5820159385437362,3.604784522735634,3.258667629298683,M
0.036454952381927086,-0.35756461447631466,-2.5606283845618374,1.3277018815404478,1.866020598247228,3.7787477837381496,4.1400237649161,3.7119872437068215,M
-0.5960056322375182,-0.8750110107207348,-3.175456251321076,0.896195835514962,1.6235049537831636,4.081541120811925,4.781363749219443,4.14502017561917,M
-1.1808167650739556,-1.3198478505356506,-3.7231564622986104,0.4026344141534063,1.2795740198603258,4.327381124245282,5.290249795075094,4.386706658698081,M
-1.7695216303534358,-1.7988017410077866,-4.267712345499704,-0.23438629492411645,0.7236753366551095,4.400019847136738,5.484826474417009,4.357131955501319,M
-2.3157018093587034,-2.3113037707051824,-4.762254751668826,-0.9749669153991396,-0.010318572819773775,4.31890697845905,5.370595946384394,4.11839427872931,M
-2.6639519480966194,-2.7191211916116873,-5.055968541122015,-1.6813373333241752,-0.7545340113503974,4.211412018879109,5.119099864606483,3.8135851527437254,M
-2.653155329278568,-2.857623735137503,-5.008420903048994,-2.2189899281149987,-1.3353167371513814,4.195541912711489,4.9120068137088975,3.541805713899035,M
-2.23611701090539,-2.6764549981332713,-4.616178498570683,-2.5600976618668723,-1.7159256973093115,4.270505190481019,4.781500761192721,3.2645428803433694,M
-1.5117441974236452,-2.272708104568461,-4.04414005842176,-2.8121856115907393,-2.035739584320286,4.3014800490058525,4.577125645362966,2.8134379456270895,M
-0.6695209477312837,-1.811633505164848,-3.539904421302019,-3.152673696488028,-2.5135166006616942,4.113109466773849,4.087778188017954,2.001001449356385,M
0.09403434882863118,-1.426080023627894,-3.2967922131919893,-3.716310875232201,-3.285791886262809,3.626219623386203,3.2268123507771733,0.7642750766999244,M
0.652610254201927,-1.1538953792447049,-3.353098967040693,-4.510059270895248,-4.295204718443744,2.9361909385125706,2.1343278503921406,-0.7610777502119065,M
1.0017634789960301,-0.9227285315239484,-3.5840841158007537,-5.406815648279564,-5.307095266109323,2.271328565774393,1.1102173964418616,-2.2959745403072978,M
1.2456549731985773,-0.5958989642811408,-3.788897203930321,-6.216252824762449,-6.043472319478359,1.8621810435008803,0.42722715462480015,-3.5635198732959084,M
1.5066253278966646,-0.07482169291078736,-3.816312945683663,-6.784152626616131,-6.3401510978545135,1.8185300028205038,0.16958892237193451,-4.417645995153604,M
1.823027432811709,0.6141159809452849,-3.646736270473079,-7.060907758545305,-6.219738319481751,2.0916367748655667,0.21134597186168635,-4.873107630289628,M
2.2538081397786938,1.8872752732415676,-3.1818865446891893,-7.045441840468309,-5.394765994625049,2.9476545219495702,0.34647581185057474,-5.023983138079942,M
2.1097445632901946,2.169235680530716,-3.149471023151956,-6.979938369151145,-4.977295868592181,3.246726547979209,0.2355180497978851,-4.855049827499555,M
1.6700288811900532,2.1415381105455746,-3.289514676309097,-6.929133809369778,-4.578503426612786,3.4061625913605127,0.10645419916150678,-4.472025278684669,M
1.6700288811900534,2.1415381105455746,-3.289514676309097,-6.929133809369778,-4.578503426612787,3.4061625913605127,0.10645419916150678,-4.472025278684669,M
1.0706454710861286,1.888674587946238,-3.4802422883464055,-6.798829440533693,-4.103921246281467,3.482427163993498,0.1302606566655496,-3.769991930093005,M
0.5613011132431205,1.5852895848248665,-3.5374776053734607,-6.434705751315825,-3.4668362598511515,3.538669943735485,0.416295581597236,-2.689775162469239,M
0.3510329566263416,1.3844687944792093,-3.3471888477218217,-5.744156211276934,-2.6933042076201232,3.5704852694889686,0.912902481611766,-1.3072526534496276,M
0.43447243107681954,1.2790223101116367,-2.986737725358809,-4.813398072537451,-1.9733787831814893,3.4737370928385203,1.3959604199511229,0.1344386551878843,M
0.5610960995279238,1.0782638739998163,-2.7254831418254115,-3.920157226444097,-1.600916568741044,3.085550191998212,1.5727231124840384,1.288649309156137,M
0.3965003955564016,0.5494410807583565,-2.879636302731283,-3.4074172128431797,-1.8218646791872033,2.283081009847239,1.2502893173641307,1.8484316006100066,M
-0.2516573711491203,-0.39899152678646244,-3.6188201191957026,-3.4950119675889026,-2.6916247846543246,1.0809612573029326,0.4584961562099723,1.6907585506123195,M
-1.312773095555014,-1.644078606507246,-4.859639184217616,-4.160995907528084,-4.041062529436347,-0.3390861354553108,-0.5617143870676851,0.9274317112445981,M
-2.506614448371756,-2.9172503857185923,-6.31523686336569,-5.176369301028275,-5.571168097856214,-1.6954646368654962,-1.4992854327498608,-0.17661365811523094,M
-3.5291399180719325,-3.955100608545969,-7.672543578319645,-6.27031456035518,-7.014611628314626,-2.7394454913827793,-2.147910075171332,-1.3663216639839395,M
-4.262724730346506,-4.658731559639614,-8.792579447715436,-7.3140208937555515,-8.267330955476588,-3.3744034848596316,-2.4995404750095926,-2.5311655309070455,M
-4.866071872110142,-5.17076716850977,-9.796208252030656,-8.392273456553907,-9.406916934233871,-3.6804342744872494,-2.698083483135598,-3.7209138207543737,M
-5.647315084333418,-5.780598682437871,-10.953953051704127,-9.704816030496088,-10.580013237935677,-3.8215125290852376,-2.8899756869248896,-5.038853125974249,M
-6.7967497431218415,-6.691649026377587,-12.448564613681565,-11.369065015942665,-11.840494262614081,-3.9008746028263084,-3.0843522061370696,-6.500295971299835,M
-8.205598850801724,-7.843197683691945,-14.199497169159937,-13.279218825628885,-13.070227680333947,-3.876648659695568,-3.1330720771144396,-7.966224431484115,M
-9.528795654044284,-8.95004710753017,-15.889960778721875,-13.118407559095417,-14.044234636476272,-3.604055612047967,-2.847292434249175,-9.19659800112038,M
-10.420184087787906,-9.70774993866549,-17.160532893646497,-12.632469163102687,-14.573309963891916,-2.9678299325253836,-2.155226292940507,-9.976265987584698,M
-10.736814505495664,-9.974097143288153,-17.811705074420516,-13.476389597062916,-14.606036711083394,-1.9989648292825488,-1.176352224384849,-10.224735030406338,M
-10.582440842538862,-9.815243907825339,-17.884574011501883,-13.733905879737028,-14.233607829519077,-0.8874093033585755,-0.16233273217689312,-10.025561120436354,M
-10.197995824261762,-9.436660802494364,-17.590873566293844,-13.595995283594004,-13.6220285845306,0.11630991518871539,0.6416252298255646,-9.565781220949834,M
-9.781077402555,-9.053942020373134,-17.150042745503523,-13.28558045462131,-12.924888446883262,0.83607724670264,1.1128909399491103,-9.026828269240175,M
-9.346455808212436,-8.76097799206113,-16.642926737428258,-12.916641515392064,-12.22496641581256,1.2417138207143859,1.2709774814957242,-8.496501838700055,M
-8.733141305606187,-8.485886738306002,-15.989360030544452,-12.448278478130307,-11.538027297776875,1.4080803362144465,1.2010664499867238,-7.956952818673514,M
-7.761758153366666,-8.089624951770299,-15.06593139061346,-11.763659565153272,-10.870820058700023,1.4055122093952526,0.9529471756948752,-7.346943605311983,M
-6.4010771230115235,-7.521163718497739,-13.855087013278453,-10.803535505328425,-10.273802680062602,1.2207272115041001,0.502246974836875,-6.641641813746929,M
-4.792833893864859,-6.872316282663384,-12.490798010627884,-11.653316267543351,-9.832495881582282,0.7730957675173866,-0.1977214401707795,-5.888146017369473,M
-3.1435556185668085,-6.295739272190198,-11.175088136088311,-12.394730547942551,-9.609992297179103,0.0018664593333973301,-1.1308524151917,-5.178531626226627,M
-1.6163941340462766,-5.898826436328429,-10.055574711913717,-11.330843020603552,-9.60389476689473,-1.0575350275068616,-2.1893013450362817,-4.591465201425078,M
-0.29817265374429597,-5.705245376473668,-9.157315409178654,-10.455703343056335,-9.752522611212964,-2.269419188711264,-3.2341327371961563,-4.151259478645047,M
0.7977789461450124,-5.66116571838842,-8.390032185750812,-9.701295391810394,-9.966736311983185,-3.461407083524737,-4.188224041475302,-3.832418660940592,M
1.731545540274669,-5.646887022424398,-7.60556620355253,-8.919722870519355,-10.153004460829445,-4.502677991999246,-5.069908178972209,-3.5973628395514887,M
2.612946508402986,-5.514529125050643,-6.674086839467407,-7.971977779866196,-10.223551492129316,-5.342701039888443,-5.933744247300741,-3.4285713983607584,M
3.541640351644747,-5.155915855248002,-5.539671841911607,-6.804116721875461,-10.102976717199535,-5.989878588396605,-6.775572792576351,-3.326875164321014,M
4.56079039563909,-4.536273858033317,-4.219057103348581,-5.461046112201168,-9.730871631920445,-6.450989020714713,-7.491072819432458,-3.283011507555328,M
5.660083769210614,-3.6587105628389445,-2.7545924519612974,-4.034510126909427,-9.0625026129198,-6.678695660257878,-7.923256791024488,-3.253967834154268,M
6.797353735298188,-2.524781219186381,-1.1796494565693088,-2.5975547835283743,-8.08173553358106,-6.570331335940983,-7.954384557411761,-3.168778545418703,M
7.90892861865178,-1.1551364858264417,0.4683048364082998,-1.1826551463897683,-6.82762679625008,-6.0263600033373725,-7.567581106227381,-2.962424828902507,M
8.929322642089097,0.37046025831160384,2.116301197916233,0.18952565788681008,-5.40867905256555,-5.033053107567773,-6.84047743699954,-2.6153117286808945,M
9.825726963430464,1.922763376227764,3.649625277348084,1.4679818090306587,-3.9826691841053035,-3.712005524564043,-5.892883479111743,-2.172181260804954,M
10.596214782851561,3.3646976061576495,4.931661079338842,2.551665302006417,-2.7130068341289024,-2.2949335478278856,-4.837863572572305,-1.7265356691085958,M
11.213006878376651,4.569935969252872,5.831017249810025,3.3062666092055366,-1.725017972008833,-1.0271826646877615,-3.763973608534402,-1.375776403702907,M
11.588042425420399,5.4320862157054055,6.2588074706305745,3.6169049537651174,-1.0699681671622283,-0.053633105016000646,-2.737256845355766,-1.1691593995476652,M
11.314952327647891,6.019736777181009,5.800442286892645,2.9126413664752766,-0.5229440829564618,1.14660650893081,-0.9695424240035784,-1.0220928146352313,M
10.713302481939474,5.8528272137288155,5.163233664795663,2.1564746128183288,-0.4235720049106829,1.5594970567295894,-0.2537977684275309,-0.9220175314976279,M
9.898269653735616,5.425510702738738,4.416185682388013,1.3429465307171111,-0.3930709186772499,1.8261897804405236,0.3108281339271498,-0.7780844505725597,M
9.898269653735616,5.425510702738738,4.416185682388013,1.3429465307171111,-0.3930709186772499,1.8261897804405236,0.3108281339271498,-0.7780844505725597,M
8.92860999263018,4.720377273756485,3.6196599182015454,0.5632586622245259,-0.48209845879169766,1.8094376500408818,0.6487459045828087,-0.6668566230888363,M
7.89622730368924,3.784706026299503,2.8439385795736776,-0.12502347527237595,-0.6980721525071595,1.4318415338438333,0.6948014143912908,-0.6607249105381573,M
6.97435760856375,2.8027561016688933,2.2313794824249245,-0.6265492909575938,-0.9107409878216032,0.8086064119205159,0.47944402311510287,-0.7214911775610311,M
6.382717440651715,2.0387447317475997,1.9751133101697278,-0.7847757118273703,-0.8769383105610601,0.23180127818003604,0.1666850938119347,-0.6717944729921753,M
6.284599862845866,1.701568856238629,2.219909507243086,-0.4445472291527313,-0.380766955079794,0.0014792202309229729,-0.01178013823035875,-0.2912037635991407,M
6.688715840520106,1.841032736478447,2.962295698873878,0.4449606316240059,0.6188048872983778,0.23666652478493438,0.11175193201304916,0.5290413800486652,M
7.42063173866646,2.331423858451342,4.02539784281035,1.7682467023415207,1.947786977676211,0.8176986174767539,0.5474099258690527,1.698414031805747,M
8.200041080769967,2.9468021617787197,5.134652196375737,3.2725423118979995,3.315996946560996,1.4962812700212977,1.162452375647484,2.977423906362046,M
8.79855976667794,3.4988897642416115,6.054298864493225,4.673043448221909,4.482057918838149,2.070847107031259,1.7798351739381135,4.121113491055893,M
9.161807938367348,3.9458960130470175,6.689734274900415,5.765195968747946,5.361422974646487,2.4850494443665427,2.277840071074033,5.002994405746753,M
9.375423607225368,4.365075782882043,7.074460895930825,6.471095696175557,6.003066845933285,2.790798413023901,2.6291722351676317,5.637686183523204,M
9.503660882281439,4.806957957734183,7.261272823248211,6.803439026947059,6.476299730112407,3.0381383360503817,2.8766109772027275,6.1077621799623385,M
9.473382839977026,5.1916254855770365,7.229771798736659,6.797963558446409,6.782350998141281,3.202761495376342,3.0791488092348147,6.465339601992923,M
9.121212914638958,5.360049632972438,6.895084444857607,6.476066035094147,6.8603175231365014,3.206192018216787,3.264178063766684,6.681371742897473,M
8.33615862084385,5.206537017543626,6.19046099458721,5.851287464989622,6.653266802891149,2.9909470615529283,3.4076654169551497,6.669945525718968,M
7.151705623303123,4.74586017483338,5.136290391820703,4.951821689847903,6.158265320805741,2.57269361415361,3.44748668689846,6.3599452011926285,M
5.729849652748048,4.0788755018044105,3.847314581193926,3.8357120659960513,5.429304170595062,2.028100553709703,3.31791550957092,5.757539890557899,M
4.278640312202393,3.323629632874284,2.489410529553691,2.596608187771685,4.555125300257149,1.4427252809135236,2.986235133005765,4.957918927654758,M
2.9605918897633012,2.5617111467474833,1.217486228325707,1.3604858990350324,3.63878868453327,0.8755229433417023,2.4796029418569225,4.1086308464777135,M
1.8397733681065631,1.8121100005588158,0.12778664054830036,0.26785584130319656,2.7852454330200818,0.3714498836050774,1.8944316395285643,3.357573921656612,M
0.9057842345941685,1.0541594011837647,-0.7465202790282539,-0.5579036838334444,2.0903856972145416,-0.0020688385005415756,1.3734710644431467,2.8115714238003133,M
0.1517528335055811,0.2953312328171679,-1.4023929641706323,-1.0459485264316932,1.6208334144620025,-0.15036895815343881,1.0423181394764194,2.5100268827901315,M
-0.38776409256115196,-0.3937013188755509,-1.8439132970664898,-1.2056435119990163,1.3809391805709956,-0.004639900150664777,0.9341315140564823,2.4161795552704426,M
-0.6907086114692025,-0.9386097407377163,-2.097652538554992,-1.1321536764617963,1.2907994233577302,0.4073522031478284,0.9628842840513322,2.438091704062574,M
-0.8157394476139265,-1.3470109692391492,-2.2286071546687864,-0.9708697978786353,1.2174286369138454,0.946994886189813,0.9808948944204225,2.481251328912366,M
-0.8784379999387694,-1.6970049727674357,-2.3058087367530833,-0.8398752293990464,1.064394559471901,1.4394820191263837,0.8861750524615477,2.506269075212533,M
-0.953690135389383,-2.03112885453132,-2.337142525322576,-0.7531583962428228,0.855324901577027,1.7879536953947894,0.6984101198276006,2.553221504098164,M
-1.018569713157435,-2.2861312020049525,-2.247469946199628,-0.6081261276102798,0.7302274385660237,2.034141433028378,0.545201523354611,2.714321969602177,M
-0.9885260685389745,-2.3363251569665873,-1.9341322633273648,-0.2600370212760934,0.8449706368238857,2.310165081815415,0.5690193780582818,3.0693398546383164,M
-0.7936580391912049,-2.091896655580934,-1.3558650307550717,0.3648908462536841,1.2503798685990928,2.7144640222024403,0.8227260494635701,3.6210806349471816,M
-0.4353494434390172,-1.5659259542711754,-0.5883365510174328,1.1976876630607107,1.841156794610178,3.210056592044958,1.2278059595002169,4.271650251569292,M
-0.010697853580562655,-0.8874794200021195,0.18798144775697456,2.044842624750113,2.407224816286413,3.629854203791786,1.6222226442622927,4.859140376591867,M
0.3079939058605427,-0.2594409438512482,0.7663511868432574,2.686448858340433,2.7532767123368753,3.7901848701426113,1.8592071604366869,5.235760043714778,M
0.35691507174613396,0.145302140856086,1.0251644651381422,2.997458164909652,2.8146713977668463,3.627078216447768,1.8857571661840704,5.339662591977569,M
0.08250503385531953,0.2940416141173808,1.000368541711517,3.016260370303642,2.69447959846445,3.2505046507476907,1.753917241646862,5.217638090878975,M
-0.4364564491368091,0.2989007820492985,0.8500392038582522,2.9079582276011813,2.587816429677397,2.8756001488929996,1.5721913850901978,4.988567272236345,M
-1.072647307081911,0.2927681572366395,0.7264449085843768,2.840926365289898,2.641290266713415,2.6860110621574567,1.441106567631966,4.772752129375071,M
-1.7474894859811567,0.30649809924175636,0.6640949036999347,2.869023603228529,2.854543369477216,2.734326833750977,1.413051910594742,4.629866088737431,M
-2.4517352843798164,0.27285372183302814,0.5784661541462534,2.9117226951180326,3.097278837503094,2.946239721994398,1.4866254618292436,4.540306662142773,M
-3.207618584416378,0.12027073624961035,0.3587433616055161,2.8384352784090434,3.2136857436098056,3.2042289970907527,1.6208188999576545,4.43512284317518,M
-4.038248166265117,-0.1658961675999921,-0.040257693138369445,2.5759226716353636,3.1218174307603004,3.4279103374561766,1.7534550074068125,4.248220774063022,M
-4.954086106834824,-0.5512151754997318,-0.5740079154140918,2.153169459772726,2.8432312462722753,3.5922171219564034,1.823518686218024,3.9562215380532235,M
-6.887927641457962,-1.3688348631709304,-1.6682393826315036,1.2082261827297431,2.0917061268639694,3.7370232564800725,1.7234449188975183,3.2198336751949546,M
-7.699327763080059,-1.6603658892695805,-2.0889855786577582,0.8302564247416548,1.7841701493094622,3.7170937929894166,1.6732139997143125,2.9320142779202856,M
-8.222847737574861,-1.7956129740027869,-2.3891371359188964,0.546343660594656,1.573830036064384,3.6659832820102096,1.7368372617511958,2.787932046854949,M
-8.222847737574861,-1.7956129740027866,-2.3891371359188964,0.546343660594656,1.573830036064384,3.6659832820102096,1.7368372617511958,2.787932046854949,M
-8.334154900703796,-1.723226966257667,-2.5455027752195356,0.36672559441813474,1.4672815834778725,3.6350069721882425,1.922100093119108,2.7907159030612725,M
-7.975111469610084,-1.4031828284808845,-2.5260424668989794,0.3056296001544983,1.4544706336316087,3.657278156119461,2.1322886361947924,2.8720464935163763,M
-7.215000388901096,-0.866500400764705,-2.3335786712379667,0.3500551943349165,1.4959515375109074,3.705416700501187,2.2198881840569453,2.918622937536132,M
-6.2545099336668395,-0.26343271045131267,-2.0463054352501424,0.43040600738392376,1.5193074138141989,3.689508566601036,2.083738677533407,2.829877892537426,M
-5.316417556193013,0.19832670375242958,-1.7872992224653181,0.4470041715374773,1.454250174451294,3.5073228692212597,1.7324041617086556,2.5747990726412633,M
-4.4947476489099705,0.3988819114461918,-1.633857379275716,0.3493823434223492,1.288413308905808,3.115627112349178,1.2681109271331634,2.2133766799721672,M
-3.7070006276311047,0.39010157336381424,-1.5534072654722482,0.19847201082229896,1.08924607767088,2.570557137605408,0.8127809761409889,1.867609946834849,M
-2.7954208561504346,0.3374015293721112,-1.4301092381227258,0.14361739472354285,0.9621450243412305,2.0027679551164015,0.43658303171464413,1.6541485563387581,M
-1.6780945554978193,0.38812980520786705,-1.1599646684737128,0.3192796881972869,0.9731044029801772,1.5387451336328302,0.13521311746029963,1.6141561800764141,M
-0.4294341940108204,0.5747324279490813,-0.7395622128600093,0.7394376348711111,1.0942540151297533,1.2211133623694193,-0.14147999405212047,1.6850592043195465,M
0.7491870165441141,0.7958156414468076,-0.2848765078374303,1.2758490599350145,1.2135814456797167,0.9850068368595177,-0.44234640551460414,1.7392795257826035,M
1.6421784901633871,0.8777212891349839,0.038704347665341296,1.7443773862329,1.2083474774237986,0.7089634222703041,-0.7855594521751762,1.669005019140025,M
2.156359475864379,0.7030384475108312,0.13575439974219455,2.038947605392498,1.0380719779088667,0.30694790098402064,-1.1572202963141573,1.4577993235179878,M
2.390705221334695,0.32920623251500597,0.06143469281330967,2.2099764583205372,0.7891867740695792,-0.19914317795089403,-1.5216497915342877,1.1876734176536399,M
2.571000335845504,-0.01921739898509852,-0.008937992237114995,2.4233895270899084,0.6287918602450218,-0.6745017577190743,-1.828234980542114,0.9809830708364007,M
2.8953220415085723,-0.10007377905420209,0.10076087026065723,2.8334427991663693,0.6968222632392053,-0.9407374174353705,-2.020240293228525,0.9243521768472632,M
3.426332348463658,0.19054795970623312,0.46301447571683,3.473955596125659,1.020805882048055,-0.8804483426436243,-2.0571056489815027,1.0266791609751518,M
4.105574121911598,0.7889205391023628,1.0348582259583667,4.250915515344021,1.5145740638638336,-0.5125766583381456,-1.9423877888360468,1.2297741751239981,M
4.832337312303135,1.5458640331971985,1.720348805303071,5.027850972540987,2.0467035282405193,0.012637934658468264,-1.73220093256877,1.4529585960290667,M
5.521258387596971,2.3204955110360994,2.438680237304887,5.723458418401618,2.5167481802071205,0.4998491210645478,-1.5103437524893575,1.6370918029676627,M
6.128844697446818,3.036608166366701,3.1568546311986223,6.3476117314633065,2.8917816503555236,0.820518797455129,-1.3448498083954006,1.7621053604028307,M
6.67166277374577,3.704855410856845,3.885197238887682,6.963930473991368,3.1967063394045967,0.9784936975132268,-1.2536095606726883,1.8371854268200942,M
7.217056870883491,4.398073371943583,4.6465172570960664,7.6219712335863665,3.4799661562281514,1.0959329103304625,-1.1930428458545976,1.8861387112919334,M
7.826010217708133,5.1780272796438185,5.439573390598701,8.312916509032693,3.7848180293132976,1.3438731931952044,-1.0654139289556477,1.9479091617970319,M
8.49240148109584,6.036017006252013,6.227193241000789,8.973626056796666,4.144256070325175,1.8656050090201681,-0.7401543774674547,2.082124754339806,M
9.137553269545291,6.90527405360355,6.955754014200558,9.521739026454743,4.5864819448979945,2.7218202174096633,-0.09525175058905581,2.349517716315954,M
9.649435137854374,7.704731814149817,7.572838822841159,9.88345583012307,5.119488522351124,3.8627007204892294,0.9209753063073606,2.762323565308019,M
9.918814733216923,8.340367099021858,8.018071566767066,9.995862957696305,5.69281388138633,5.13203910925299,2.235572193419838,3.247050565157278,M
9.869249918100664,8.686507852739874,8.213958014255608,9.803813281836225,6.182213694855198,6.312999617816464,3.6500112697010123,3.6679430530246284,M
9.49767217563094,8.627484561004646,8.094005996578185,9.27745288204614,6.436903114655777,7.206071458206009,4.9131154778414565,3.9047877514890175,M
8.889814830844099,8.14659043716366,7.649596811619331,8.441094000669743,6.362568171364746,7.700196957162198,5.831711457056925,3.9212963355653683,M
8.165008036204261,7.355386331805003,6.941339651547804,7.3784377761684565,5.968017529157944,7.794637979804278,6.345375161652918,3.7650383301247343,M
7.3942852846497065,6.421637655739256,6.0626094516926425,6.202167462113586,5.336490594251861,7.560090067604094,6.51094157868297,3.501728114616352,M
6.587320344589249,5.475070275604977,5.097344491317162,5.015261869508156,4.55108861083829,7.066787686370581,6.408460062643153,3.143336032852912,M
5.7556008192798185,4.567431860908428,4.104264637602126,3.8929663511465877,3.633681687563707,6.328696530140251,6.043390051875619,2.6315701745397724,M
4.957835902819224,3.6792161785612243,3.1174611067032,2.8829024144114954,2.536478275465958,5.304900973073062,5.327410766732242,1.8890866459768134,M
4.27165266984642,2.749558873330821,2.1483781230765717,2.0047093493408283,1.1891408251784699,3.9607700010834406,4.158515286620759,0.8931732702402077,M
3.741820552630137,1.738037032916436,1.1950707913696506,1.2456556817774609,-0.4288963635653724,2.3425979950656126,2.5368828549327835,-0.29162891191828866,M
3.367913940823725,0.6942658151170316,0.26040131349235995,0.5650814657900434,-2.241507928408167,0.6039684235989604,0.6220735580975753,-1.546804960834968,M
3.126140610205355,-0.24057734184521004,-0.6367675826846634,-0.0833248650228533,-4.089482346901711,-1.0375634454348925,-1.3112063254184467,-2.7622573556838335,M
2.995725973816847,-0.9194995265217182,-1.4628603766253205,-0.717926861186473,-5.789817316060974,-2.3776971581082016,-2.9805384758313695,-3.868845367001646,M
2.9848525085088577,-1.2731606186464302,-2.1691550425171604,-1.3048151578185236,-7.1922683563549485,-3.2859227320547872,-4.194696540616613,-4.8234378028289315,M
3.5181953519682425,-1.0834752675570098,-2.956151454037898,-2.0362932392781943,-8.797017721316942,-3.772638771772769,-5.172307460797512,-6.117860693953473,M
4.098415630183217,-0.6501430263180488,-2.937728884063654,-2.1014146030018277,-8.994087207053997,-3.54645135205672,-5.163163859130682,-6.426648474910541,M
4.785590274271881,-0.08462112577736525,-2.6514597890502736,-2.0175260158275288,-8.851949943990217,-3.204557445264838,-5.028566376629981,-6.55702514561648,M
4.785590274271881,-0.08462112577736522,-2.6514597890502736,-2.0175260158275288,-8.851949943990217,-3.204557445264838,-5.028566376629981,-6.557025145616478,M
5.476084763948328,0.564444417475257,-2.1356055582126388,-1.845893736254456,-8.417335236098946,-2.8599733627647117,-4.864257093981836,-6.564505094092939,M
6.141761275984985,1.301258631333655,-1.4133236053844749,-1.5896925300171285,-7.703444555893303,-2.5451172723767996,-4.684469038462963,-6.466517864884641,M
6.820750554934449,2.151584288894685,-0.4960646706788022,-1.1900932777604956,-6.709899998634313,-2.219207174605331,-4.448203617243835,-6.226758795818277,M
7.539284230424277,3.0977487408004913,0.5809559447315278,-0.5911308057039053,-5.472899959210214,-1.8235241428905333,-4.110113678263613,-5.788700392575324,M
8.263564376942137,4.055790749768114,1.733520353513302,0.18352122538166976,-4.10474322299198,-1.354759073242223,-3.6679866589303267,-5.137402286782249,M
8.916698855781217,4.901233788679285,2.8297347514289237,1.0026459405929147,-2.7968672189632393,-0.9111930746678855,-3.1892057750659992,-4.347432266334744,M
9.413367616256226,5.490291959062467,3.704664361316934,1.664266329822101,-1.7846566922354916,-0.6745725096217393,-2.803781148731516,-3.5797163786073414,M
9.67903706413387,5.674788757073831,4.187088807759163,1.972125754459869,-1.2810467475514904,-0.8261215361654312,-2.6576890285987376,-3.02030351110447,M
9.666452530328069,5.358386501725233,4.149623218513528,1.8129136261480023,-1.398071138973436,-1.4424983018643602,-2.8422320741367697,-2.7946018952914944,M
9.371301874913698,4.576136271500635,3.566331350752474,1.1983532010347926,-2.097861294488053,-2.4398884785329327,-3.3391919489535327,-2.9120803141497946,M
8.827009679466105,3.5055695316645936,2.534489925167146,0.2515013714274806,-3.212120016466747,-3.6072465663926634,-4.019491175481679,-3.2787006258750977,M
8.085592286884768,2.375872808339115,1.2372147719541213,-0.8549814995470337,-4.524068546014448,-4.710454800321452,-4.702557516898851,-3.7692287533084423,M
7.212332842975665,1.3545832390157684,-0.13194300524962746,-1.9730841647785826,-5.859616521752605,-5.60134621611113,-5.246211174903378,-4.3102945993301045,M
6.285991411473434,0.4986354105934875,-1.439411760704008,-3.024012492624006,-7.130396382325851,-6.260545975779388,-5.611938209086193,-4.913578990012953,M
5.373948220252405,-0.2214850600991955,-2.6379880927573884,-3.989957182432298,-8.306766724261823,-6.745626812025526,-5.855121708326846,-5.628735194439633,M
4.5007754971646445,-0.853685136580277,-3.7290780374624672,-4.863511602939672,-9.344783507198986,-7.085036522439344,-6.038622606577736,-6.4474894092515935,M
3.6641525311049308,-1.3798190246363282,-4.683614744049845,-5.595535708080797,-10.126872989508808,-7.206218454007688,-6.137513555380063,-7.240481053889499,M
2.8910270632804265,-1.6742468493080787,-5.393984364263722,-6.087975986393589,-10.478233921098433,-6.965659315892165,-6.025067860868054,-7.794550118986123,M
2.2558140774290454,-1.5777276653483365,-5.720688722064115,-6.246266517315143,-10.268079359639291,-6.265518837414455,-5.566088924787648,-7.937958100759433,M
1.823907048359016,-1.057800956806512,-5.609309489547092,-6.05473824620566,-9.524568025150781,-5.166603889209808,-4.745446363736294,-7.660882137684217,M
1.5841432612790303,-0.30278690896791666,-5.171796122883003,-5.612767957688213,-8.46303868448862,-3.9070781057144486,-3.7216706674769995,-7.132681061848432,M
1.446778203953029,0.3636154713272279,-4.648525062862065,-5.096404313415592,-7.389991668761797,-2.8051941855028506,-2.752028092837645,-6.593896984472522,M
1.3039567614687624,0.680457567988506,-4.272353723058724,-4.667564285992267,-6.5443689815202335,-2.102745715269782,-2.0358260630767373,-6.1977398529017105,M
1.0975875698583404,0.5957903320756904,-4.134600102641075,-4.392227834839544,-5.983632597201653,-1.8439245598264413,-1.5899386365562729,-5.918302589742124,M
0.8541549317369123,0.2711938974396532,-4.1454804744855025,-4.222587634815673,-5.5873066971033385,-1.866799278135413,-1.2558734730628953,-5.597055601145784,M
0.6652098620308279,-0.03225656778911421,-4.114729092697508,-4.053742968339368,-5.172502368298216,-1.9183295234361755,-0.841905359375934,-5.092890869366767,M
0.607437856108936,-0.11824381258259482,-3.8988691316879853,-3.812628370850402,-4.642707765678328,-1.8201856365965874,-0.29089972932272923,-4.414157900746652,M
0.6516493785223537,0.019422055798838544,-3.5084070046429034,-3.511656850019391,-4.063202098826611,-1.5716631691222098,0.265462528035195,-3.7234274856499687,M
0.6573689145136731,0.20935317113237933,-3.087075168373082,-3.2262725948576003,-3.603736291883981,-1.3198092235229582,0.6113088525411288,-3.215677385145473,M
0.4849722886717954,0.2685503100810921,-2.7772897241335217,-3.018674795328819,-3.392236672685624,-1.2249450392435446,0.6194431210779591,-2.9775765560989225,M
0.12399724171893252,0.1853390294826471,-2.5887397543774715,-2.874160181801895,-3.3972159635928563,-1.321280066431671,0.35279302503532145,-2.9382043355242415,M
-0.2895828098645927,0.14931240176423174,-2.380850553082994,-2.6994133424470332,-3.4281805049771608,-1.4668889641460607,0.02760872448737422,-2.9295191108620866,M
-0.5702394577915475,0.4137027076099252,-1.960318052908736,-2.375125078169346,-3.242728483069473,-1.4132170562923618,-0.11824322007466181,-2.7900869204794283,M
-0.5913560690644589,1.1292990255303141,-1.2047963773267532,-1.8194295983714555,-2.6774602688305764,-0.9518062778111014,0.043759127651964436,-2.439093038329035,M
-0.3346045525812985,2.2664450968694014,-0.13209062678062863,-1.0283905744214348,-1.7271805028392493,-0.05097305885590995,0.47752778825950193,-1.8947115346771723,M
0.11414855336352692,3.6317656678192223,1.1083679859375855,-0.08271372522577916,-0.5422185257260983,1.1054161472292332,1.0244557941987322,-1.2495748508346343,M
0.6085655230101229,4.951233961155846,2.3089891154357214,0.8820934857542515,0.6498984856147139,2.2128940981254877,1.5104770144009716,-0.6252269778746975,M
1.02099279713873,6.000551679056753,3.307689931058568,1.7356174729910567,1.6604601088875959,3.0228215599147235,1.848023021281567,-0.12460923238960844,M
1.3107676881606858,6.718251011316764,4.0594397734772345,2.411022495394765,2.4257154458756047,3.4825578177333227,2.066293117926469,0.2017319117859481,M
1.5168120386741555,7.205675549199046,4.623330851132647,2.9206324130761745,3.0072205475783065,3.741667337748754,2.258318576857861,0.36723403561556595,M
1.6881650974530646,7.612405892876633,5.085616197778743,3.3204466764976757,3.5170944950506864,4.026904737475467,2.4989259223881133,0.43865922694203763,M
1.9522906684134704,8.447413611030644,5.861721284168158,3.9418619481311756,4.569603571184827,5.097453846859078,3.1265689315585012,0.6321348255875335,M
1.9934182921300192,8.817367649341787,6.153725917527378,4.127338232996501,5.054896213908565,5.716008231912399,3.423795473082366,0.814819387612937,M
1.8727244583030855,9.017037566227021,6.310849219558993,4.129987032733758,5.376786667474148,6.159431887893559,3.646494059959423,0.9714498101161485,M
1.8727244583030853,9.017037566227023,6.310849219558993,4.129987032733758,5.376786667474148,6.159431887893559,3.646494059959423,0.9714498101161484,M
1.462008786831587,8.897419970803158,6.2493081812705995,3.8619570991781993,5.42526285400996,6.321141916267867,3.7640760409700915,0.9949859804429412,M
0.69423227779053,8.375353931160586,5.922791112950094,3.3011834329188803,5.174653615025958,6.222631913763086,3.7758913140313317,0.8447902447254663,M
-0.3257947712773172,7.532289393410167,5.394947847382399,2.5479787733980217,4.738622306482958,5.997076614105591,3.7331944972822435,0.6112979873496865,M
-1.321270085477172,6.603528909138447,4.8514213729921,1.8130305548555898,4.3408980885076875,5.817734460491968,3.743245172984564,0.49328988769963783,M
-1.9682423648633645,5.855888002812873,4.524935532580821,1.3280913566090908,4.204311290169746,5.810548177836929,3.929392075240666,0.6881521056712498,M
-2.0563896423352017,5.4532196014072,4.576842329968413,1.2330480859421418,4.428901261104666,5.994617037077164,4.3539864182597645,1.2652899959079142,M
-1.5957892841388255,5.384388045635176,5.00459659724506,1.5097716756123998,4.93830154751525,6.2782535885694255,4.952535410486571,2.11268016521448,M
-0.8174256413734728,5.472217360855224,5.633408551194042,2.0015509616314096,5.528652676629277,6.511726952539712,5.538428876302239,2.997086746202151,M
-0.04655932996033867,5.476059297349553,6.215062350978772,2.5086909131337403,5.994852495978144,6.57078635329966,5.897149953801953,3.6975211931579124,M
0.4965097736787608,5.263452240426943,6.586063466575018,2.9059544125429646,6.258519897602566,6.427194717866145,5.919056485347467,4.1218385625171665,M
0.8215119933795597,4.927940356165447,6.7697977425225115,3.204651200596293,6.4083798880939025,6.165320705528113,5.676419737822713,4.333312063005585,M
1.104511917955208,4.724305505475549,6.932662540995618,3.5110415362369833,6.618873690491837,5.932214772466286,5.3791656426007055,4.480285742580473,M
1.494637423844957,4.858879763940051,7.227767627270653,3.9099149742924353,7.0097488970447355,5.848677433179901,5.232838370103914,4.685681181114248,M
1.9698907035558826,5.3229383107144885,7.657196756048384,4.363799290822929,7.5558471722950715,5.933780813024047,5.300181388088444,4.969131035027725,M
2.346725557101463,5.897808324336178,8.054000673714432,4.7033889057833385,8.102546099385245,6.087256962189874,5.4644512944969525,5.238604736007729,M
2.3976170922908207,6.288578822942059,8.178709969031711,4.711094264309988,8.452504558859896,6.138779185741503,5.510983341741962,5.338248072432657,M
1.9801439436409738,6.27581148362052,7.855662996302016,4.238212651479921,8.456138629886844,5.934310935557187,5.258751020080458,5.116971671912028,M
1.1199231308954212,5.8206231508539545,7.072281596710437,3.2872577140749457,8.067053252609824,5.411983825792609,4.654686981104348,4.492939821498199,M
0.015224512619398656,5.085699892846295,5.991438812774605,2.0197331565437926,7.355045014231067,4.631368066041423,3.7877961450991093,3.5017254610231587,M
-1.0509746216255877,4.341829795733494,4.869689300666167,0.6898599963388747,6.4781042030081055,3.7472337760563077,2.8344386095521292,2.3092900278713078,M
-1.8438023609048444,3.8037948381115014,3.9325989549639067,-0.45802419707802444,5.622924356361953,2.942509575208501,1.9731810566002757,1.164051180203782,M
-2.2608135256192634,3.521739171583838,3.2884779139603504,-1.2738999676986575,4.93750890080176,2.3485796120937805,1.3098552496646985,0.28795121316225625,M
-2.3283207585468246,3.404521772758435,2.9222018083189933,-1.731640009207934,4.482059813516974,1.9885657207224512,0.8452033359235479,-0.23948900690911765,M
-2.155936439651669,3.316612704805677,2.7446137538787063,-1.9033215264679046,4.216264989614924,1.7773203096260795,0.5009001262179132,-0.5188944425624198,M
-1.890419162648715,3.1544893391791065,2.655308457313629,-1.900208393743723,4.035251513660913,1.5875387512643626,0.19206852104947664,-0.7454986123425882,M
-1.6517691131961336,2.8884526838623623,2.6003108348011708,-1.8060968625456018,3.8494465732338674,1.3469578693554982,-0.0958937766918285,-1.0515764493943065,M
-1.4538791363516466,2.5875056041322573,2.607829384036062,-1.6335678181519455,3.6622316433892528,1.099236570623139,-0.2797197085886436,-1.398369182381678,M
-1.1867605519657336,2.39041627864942,2.7672308638729017,-1.3359636323351807,3.5746798022439585,0.9764952645926789,-0.228108364019253,-1.6094185110024815,M
