Fz,C3,Cz,C4,Pz,Po7,Oz,Po8,Inst
16.16908491185356,11.61810897504442,12.898236783841877,9.277027416151459,15.078494094025382,13.592195952933924,9.941555752655075,8.403659828211367,b
15.766656254735455,12.73481019916845,13.411606138845936,9.385283402661303,15.960574012071646,14.789025996690336,10.935167995992073,8.801914399828132,b
15.078494978516659,13.665783165373146,13.69555167265049,9.213369282231,16.304936195245126,15.536603402717892,11.44900646209797,8.794348070893642,b
14.15501993587423,14.283977104044567,13.728188123403253,8.795124692681695,16.123989697599917,15.741183620749059,11.498977628100537,8.463682732171653,b
13.119090472040531,14.544824456025344,13.533583147396566,8.216471475753389,15.535391586042712,15.436914359575614,11.196253068782713,7.925459976357855,b
12.158321574009708,14.530251042564668,13.1929020202186,7.594941829746513,14.703246227645346,14.78262996434737,10.654892788762295,7.257316361995798,b
11.466740538575202,14.393712714090475,12.810059693260778,7.035713987590822,13.749276989982013,13.962549643606517,9.900921620306075,6.459292962325302,b
11.140611681061738,14.223189114441675,12.445761993250377,6.5840505032155905,12.695383074847301,13.066793519673931,8.86615738689574,5.4769006794725765,b
11.121443475829308,13.959959151636363,12.086114179877086,6.2170980964092655,11.495489190074432,12.058738092246406,7.488492805177046,4.277016214885264,b
11.253787688159205,13.473550327743197,11.685662269361861,5.893900544183389,10.143864624294633,10.86572878886851,5.845378802683045,2.9269443532513995,b
11.39954786208111,12.712034623993782,11.239215121009611,5.623141657466602,8.763889053740616,9.516658570059956,4.199594745256814,1.6154630579151408,b
11.498858701705823,11.763486875853271,10.803545336216578,5.480033958178405,7.583381010995792,8.198015242787601,2.8920445343137193,0.5850156328498077,b
11.548508866053064,10.783682865752505,10.450563134600177,5.5476026348083325,6.804940908672667,7.165370238631709,2.1472825032572644,0.009587469110636172,b
11.548512121626857,9.88486889399438,10.20336659534365,5.8308690314038305,6.478747606559952,6.577693693451474,1.9494348958356753,-0.09249772175970361,b
11.456583633776685,9.074459253244902,10.007900042953333,6.218390825933442,6.479717391661259,6.394536584553042,2.0958753766531872,0.16001954827751316,b
11.163440073483628,8.25818482856498,9.753061154811334,6.524208474428337,6.598074724481672,6.42037135798959,2.3767229573260584,0.615149172985145,b
10.5163738259827,7.302130379626883,9.326824546122008,6.581911846488438,6.668423265175723,6.4536770469426,2.7177685905489595,1.1808652514970763,b
9.404205764753852,6.138399989839448,8.681316690418925,6.329616188053937,6.647029866988151,6.419695986274242,3.173307821566472,1.8338187005079725,b
7.842343853236078,4.839979896885032,7.861578628620435,5.831577879250132,6.591573568224963,6.39226594934164,3.803007171233452,2.5595970948847633,b
5.972676468022948,3.578698174857293,6.966722634877724,5.222573335189281,6.56926462181041,6.50215578218142,4.5620247331643435,3.2995260303804725,b
3.9827283094486012,2.494425240518937,6.074591645483988,4.616987521282089,6.575925721370612,6.8105465620855075,5.30042436112361,3.957598614731423,b
2.0303964124267835,1.6081508388553551,5.201974887516691,4.052686177431927,6.538484334360386,7.243614404164082,5.8590954448387125,4.456591387930097,b
0.22038299663830346,0.8503093158800951,4.329230429906737,3.505670352817701,6.3904308654046655,7.6308682017253755,6.16847248189425,4.787264271530543,b
-1.3991476130312266,0.13999134377794725,3.4460017484818466,2.9460154539017416,6.135644618838013,7.808737344452787,6.265564323794404,5.001416747638329,b
-2.8389437118274286,-0.5673046388836701,2.5691527073068414,2.3790150445235922,5.83597972905034,7.70731183049661,6.226294146408187,5.151348330646886,b
-4.139009950930209,-1.2638407718351032,1.7347696052022201,1.8467851310461931,5.545573251775049,7.363632490283303,6.086186389325768,5.232500051102938,b
-5.3057038613923035,-1.8845691816472194,0.9881332345769399,1.404675161276385,5.264404995823514,6.86836704463483,5.823672760326541,5.188751730341699,b
-6.281215447001841,-2.3362999515270024,0.3727785240512365,1.0933210649697547,4.949920212856168,6.296865085398587,5.411680172399085,4.979343167608677,b
-6.9888149775513835,-2.568032713340422,-0.0895631777736368,0.9158750194972758,4.563776048261819,5.672597944299477,4.876594779961607,4.639808960122162,b
-7.40927045796033,-2.619526472023351,-0.4173228063923277,0.8257714967672503,4.104599634959131,4.975889201778313,4.301563641137775,4.268384273013622,b
-7.620209491963777,-2.5970182625475826,-0.6713608115491362,0.7298911308879414,3.595406461473818,4.176898921688531,3.7683463359206693,3.9402361337480274,b
-7.781086342360082,-2.6144806526961424,-0.943672296245572,0.508822790390266,3.037017281530125,3.2638250829487645,3.2919564408316453,3.6269849319357603,b
-8.072799326864308,-2.757335582480215,-1.3328983973977988,0.056692920352837975,2.3805081748144064,2.255347760996378,2.8119467564848173,3.2051079470121975,b
-8.597781033493433,-3.0568921747458164,-1.895739785436622,-0.6609070081046877,1.5676800032139822,1.2054087221305458,2.254246594289323,2.562298749303589,b
-9.290030808761658,-3.454517096001233,-2.5921031041520175,-1.5585770714457565,0.6180140636881267,0.2049552473521056,1.6109549928024016,1.7174626407988085,b
-9.933873913662925,-3.8078027435324286,-3.2846780807687104,-2.4440838594680434,-0.3291916116223562,-0.6316106545319261,0.9657243485322823,0.8453623005314352,b
-10.408476248364332,-3.9954771164480194,-4.1626806983024425,-3.47524677499842,-1.5243991033986524,-1.4965089673185779,0.11813279807707847,-0.16369989924768594,b
-10.356587118748605,-3.971686256792296,-4.381627784728651,-3.598715615531926,-1.6988981000051393,-1.5746618102836891,-0.015199494306886352,-0.20226541504716358,b
-10.372168464018745,-4.085051741476232,-4.62634169020863,-3.655592234361337,-1.7668189247713215,-1.5897648891807978,-0.041392776095510266,-0.08775982158267062,b
-10.372168464018744,-4.085051741476232,-4.62634169020863,-3.655592234361337,-1.766818924771322,-1.589764889180798,-0.04139277609551031,-0.08775982158267079,b
-10.552602420471594,-4.410180115654731,-4.992580929134643,-3.789751802438807,-1.8944477907461088,-1.6836710085829185,-0.061610677582453865,0.04354793945658493,b
-10.820461553347226,-4.888933839845982,-5.463680723966661,-4.023191463885281,-2.1524044769482398,-1.9131421424681627,-0.14864249661618772,0.14138301076188448,b
-10.991964927074086,-5.380969182803469,-5.935047917049603,-4.265594616463051,-2.504152200856344,-2.235076604146382,-0.33493628239762374,0.2145709050396185,b
-10.930560053750023,-5.770642359331548,-6.310441660534475,-4.418441592332931,-2.8875290470260064,-2.5754545259737682,-0.6305744446696295,0.24465309918856973,b
-10.684943950451897,-6.076533276944931,-6.601558327118357,-4.487999004579708,-3.315711322124899,-2.9239865664936717,-1.0442966204413848,0.13830058541767917,b
-10.490226333879885,-6.469138463654024,-6.94093067324781,-4.60740405811924,-3.8981655062211864,-3.361479158231225,-1.5825613118529438,-0.22621549446581063,b
-10.601274474346567,-7.141248728761431,-7.479865542993392,-4.943166758898507,-4.753277101207541,-3.9857529164710854,-2.2299040927068465,-0.9034178163056383,b
-11.096988902893631,-8.131037725753696,-8.259199286858799,-5.569053399919458,-5.897422515218579,-4.803872109847888,-2.9411999271840275,-1.836780921388927,b
-11.842068847263501,-9.280821087103721,-9.177710992648072,-6.420596374415379,-7.221886016255885,-5.6943760322946915,-3.665602096972795,-2.916685634482488,b
-12.62649468639843,-10.373516915459458,-10.07984731410124,-7.359499988659503,-8.571621357236781,-6.474523500180496,-4.378720834600593,-4.081448839597251,b
-13.321358689754675,-11.290872323076886,-10.86297739780812,-8.271979452072152,-9.836560238594377,-7.010547476141082,-5.079184536968282,-5.35199951609849,b
-13.913312144815006,-12.04232572140221,-11.507905859873597,-9.110755580095047,-10.97526321873318,-7.279898904243707,-5.743497956929301,-6.75706666570547,b
-14.438523152941775,-12.684429472712463,-12.035098952566813,-9.865296638738739,-11.978627803552076,-7.348143491422118,-6.29000649938074,-8.22419202733263,b
-14.911979586344396,-13.242060431616718,-12.45076892921926,-10.514532422225795,-12.832453562033882,-7.298307912318728,-6.6075357303147495,-9.559102273339397,b
-15.30102103633693,-13.685417315408122,-12.72957305122141,-11.017255465559506,-13.514895115623684,-7.18198074860697,-6.642128395430386,-10.557717109466946,b
-15.544321140787549,-13.953937275568531,-12.840602743303497,-11.346578490327499,-14.02106972310548,-7.028870208376993,-6.467883652788754,-11.162599395717788,b
-15.602703652636787,-14.010528186043604,-12.791371333311128,-11.52690293342565,-14.382926250918128,-6.8859493467249875,-6.26510360941756,-11.517027816768305,b
-15.494837687001587,-13.885439551657521,-12.639075365803958,-11.622501103207396,-14.651243574044434,-6.822608303052978,-6.20073455445579,-11.848772664821158,b
-15.260731177490133,-13.646202047897438,-12.43566565671447,-11.67074044161287,-14.837296973490506,-6.877403083602934,-6.296384232183534,-12.269181158116771,b
-14.880975043801897,-13.305005380561335,-12.151852933845399,-11.619831015608177,-14.866209570233863,-6.998977816109944,-6.398031530997973,-12.660958149610732,b
-14.26484768150434,-12.780962347004863,-11.675812067622036,-11.345725973501162,-14.607484467239283,-7.056899364422323,-6.2888052602842865,-12.759256005855208,b
-13.34988643890918,-11.987426853939477,-10.910298555488463,-10.748372620115513,-13.97546447997322,-6.929343447928659,-5.862083360730467,-12.360916785421159,b
-12.198583109695928,-10.94269507250306,-9.868993345193351,-9.837431354721595,-13.006014786258584,-6.587891247818435,-5.210159688802905,-11.484720171924362,b
-10.96497669295959,-9.758961041590407,-8.665219286069009,-8.721993421795425,-11.831218798195689,-6.097404878307088,-4.550959811733892,-10.354896954518107,b
-9.765052711984977,-8.527307943988065,-7.410412114201334,-7.518528460589685,-10.581659368606761,-5.535901769469425,-4.054379416866895,-9.23573066364305,b
-8.593739546533238,-7.247361715609519,-6.133909110228902,-6.270902334474875,-9.314187587080522,-4.918364037958277,-3.7133381182589624,-8.259967018188956,b
-7.3575658447406935,-5.871175516817961,-4.794879592812154,-4.953604689540143,-8.0204006658245,-4.197890893501007,-3.362397993592844,-7.379647379447969,b
-5.972545503938112,-4.388453738874189,-3.3606509221464678,-3.5465001741397244,-6.689198833546287,-3.3381267689226695,-2.8236722150092066,-6.458824175091072,b
-4.456165731556105,-2.8722667464722322,-1.8847026268356721,-2.1142883788710423,-5.366458461888373,-2.3862668661502933,-2.0611187573046936,-5.42059002947409,b
-2.970209220768372,-1.4764191426896764,-0.5305425323987337,-0.8257183441413047,-4.172279989907753,-1.4794367323560915,-1.224336320762987,-4.33073166282698,b
-1.772765701811895,-0.3869920208412808,0.4879542430139142,0.11324149930177088,-3.259120336410099,-0.7743397349234369,-0.5530928952119122,-3.358784862172489,b
-1.0738049126078593,0.2775886255588947,1.0310917776332809,0.578983041157136,-2.724389445342355,-0.3503243026192866,-0.2173432371776467,-2.6549139784749682,b
-0.8927673985597879,0.5584262734610432,1.1342127635107027,0.6168288345304355,-2.535420804525902,-0.156889139292781,-0.2063242541843049,-2.242270618854418,b
-1.0548777355638406,0.6342995287417141,0.9871048637699289,0.41583647309795363,-2.5360811623653974,-0.04540016765109086,-0.337348399445074,-2.004969557101779,b
-1.336677821429859,0.681881380804729,0.7955888042826785,0.17892312558347584,-2.543018193790841,0.13664672056569924,-0.3731311188586682,-1.7738095291989935,b
-1.6208457912314524,0.754340686670836,0.643158270960315,-0.01062587479859547,-2.457785448056611,0.45606067996502037,-0.17023702450050945,-1.440420632422247,b
-1.9351560358695703,0.7883126568515084,0.4639988948726317,-0.22012557226629642,-2.309478529654061,0.8686369241961044,0.23591793611780468,-1.0170582690426628,b
-2.3842959275058275,0.6946424633901864,0.12778124080623204,-0.5795203178920706,-2.208171563905221,1.2639843258724868,0.662911473999158,-0.606453184291027,b
-3.051815972063248,0.4276482095475399,-0.4458402967772569,-1.1517455158435312,-2.254886042269012,1.536075387140686,0.9059332630345104,-0.3135769530615434,b
-3.921190497579525,0.006526801490099899,-1.217802351951062,-1.8586787590454208,-2.4676825225592482,1.6307059116663698,0.8697513541931284,-0.16814799434589434,b
-4.847788468922554,-0.48403817055378145,-2.0363534919453796,-2.5105441469199503,-2.7635020920010613,1.5557180150283092,0.6225282092355489,-0.10952158292831346,b
-5.6180743293842825,-0.9207071310134987,-2.7141659597229575,-2.9152156706364307,-3.0053480934845096,1.3702115804380266,0.3431089687350845,-0.033995303233241,b
-6.19963391446324,-1.3089971088083718,-3.268308815649134,-2.79024606217555,-2.973343216921052,1.0488527840867672,0.2581754574966878,0.4229641952637147,b
-6.0809174540635755,-1.2536868337126676,-3.1920587929920625,-2.439278454189602,-2.7185334511394625,1.0852870907716539,0.428717135187384,0.7805274688127328,b
-5.805348266883517,-1.05249699174979,-2.9440048972621358,-2.0108599313056974,-2.378604545542509,1.2843813242675195,0.564793097071858,1.1543716868327316,b
-5.805348266883517,-1.05249699174979,-2.9440048972621358,-2.010859931305698,-2.378604545542509,1.2843813242675193,0.564793097071858,1.1543716868327318,b
-5.395724138124342,-0.6998438914121193,-2.5121981723765137,-1.472494241275943,-1.9775621493229534,1.5962452724992438,0.5674089183108415,1.5124042849435988,b
-4.822818643282909,-0.19246947204173886,-1.851861981983007,-0.7226911980024555,-1.4937684964755036,1.9699518006152847,0.4730891356314947,1.8632216152272782,b
-4.050684551497837,0.47456816893950426,-0.9341962256028463,0.31715701592830037,-0.8779487731077283,2.425632932424556,0.4511295022444992,2.244641738200731,b
-3.082262031026702,1.329263314562315,0.22070773651120393,1.6310806856547893,-0.08252184818170187,3.0784133331107197,0.7201846746259589,2.7022301176487664,b
-1.9952552888377781,2.399586491576132,1.5373346245748716,3.1027652891689153,0.9065785012488392,4.0747359900979845,1.43838566281593,3.2759586799515845,b
-0.9370867887812565,3.65069613569261,2.9018948981964536,4.570550057230151,2.0459931598656516,5.46749687451396,2.623416538085005,3.991369888010273,b
-0.059094189283427224,4.958534417575364,4.193047175303971,5.898921716205317,3.231179090839465,7.114614875318232,4.131825113068762,4.8379356768143325,b
0.5549019616728378,6.148757357128013,5.301889345772828,7.01509692222551,4.315443549243982,8.688531793788071,5.701571473410197,5.739030111392784,b
0.889473942219212,7.0531353806719945,6.129285083918574,7.89423313834835,5.1484755044507455,9.818338051465712,7.045904415691114,6.552299399936588,b
0.9447393869303014,7.553248132067717,6.58912782714889,8.527239609916005,5.631751640296528,10.286389949061602,7.965407715234543,7.131203087246985,b
0.7178950320152818,7.625902692424499,6.647970530099547,8.91496959655507,5.77171651836614,10.141524655497998,8.420599442978808,7.4183635384991735,b
0.24245883011523173,7.36904844606083,6.371985351101907,9.089330736172158,5.686101463499009,9.636995061963333,8.513653808249568,7.49340981760835,b
-0.3842921980316392,6.950040724408336,5.917380904382682,9.124470451761749,5.536713834687339,9.036281822090691,8.385240679555082,7.524687678838168,b
-1.0300262463422896,6.494303517524773,5.454665837560276,9.116733784528629,5.430717567591637,8.440507061715879,8.10191117988302,7.654335536176563,b
-1.573560096721621,6.024546258772791,5.090196180483138,9.1492538779686,5.373008038927881,7.769630202484356,7.622400463637999,7.901712894158683,b
-1.9296433798774129,5.5067219734134865,4.842878832741261,9.264760758418511,5.3053506111852204,6.894388861771029,6.868570610379779,8.15575704527971,b
-2.066912433503647,4.928254469755101,4.673683940048717,9.455572545579505,5.186870838105388,5.795838398474514,5.84215359788752,8.261662328667388,b
-2.023473253216194,4.323188722930956,4.536987087812422,9.675735080921529,5.046615502608855,4.625007746750808,4.691258998468632,8.139052499934698,b
-1.8811828783816502,3.7582432700495687,4.430441584092616,9.878073166422052,4.978021711803853,3.627977013130858,3.666056960086716,7.8424863997031,b
-1.6962602861533636,3.3226666520410504,4.414947306857276,10.055458125327595,5.086766350632014,3.001079687804116,2.985504644973664,7.516622187977083,b
-1.458902750996595,3.1021070016849857,4.575156805480957,10.24726004838383,5.423218906753943,2.780087037675897,2.7103775290802967,7.285637548237162,b
-1.1289439165269637,3.11741695039264,4.941095673943948,10.499635806699628,5.943196745528228,2.8350517220136995,2.721537932361211,7.173842200784604,b
-0.6930205908298943,3.2912697110422,5.447181410323605,10.817389844734699,6.532206026815372,2.9656518627379103,2.819759365038034,7.120000434320727,b
-0.17299887050735957,3.5047817878146192,5.974949059667165,11.152007193758518,7.077797959317768,3.0220339302419057,2.861105324101765,7.053785182929017,b
0.39810862476388653,3.6907077060986295,6.434109045220028,11.429909932541015,7.525802608280543,2.9669091077400465,2.819243071672436,6.949795196812142,b
0.9810674343610012,3.860069403822918,6.803696007807682,11.593004136312707,7.876157774509724,2.8518081921239267,2.743967192717455,6.815207244628823,b
1.525449863690287,4.054932955859696,7.113144614764893,11.626909252109202,8.142249034366658,2.746955373435101,2.678264876246198,6.646212355664959,b
1.9897938207916972,4.301611466019957,7.397832567291907,11.563560886267942,8.324484876747736,2.682167802074567,2.614860236236523,6.415307003600707,b
2.361477879952845,4.593451919189712,7.657772687149619,11.450468477923504,8.410818410923289,2.6293456068791423,2.518803106487451,6.105219631811498,b
2.62930590489971,4.877013923101907,7.832736359795325,11.29965953255618,8.384026280959597,2.5271513605411036,2.381585233445472,5.746237120475994,b
2.736978246217286,5.052842728158551,7.816135809710943,11.0588366552096,8.228597699401398,2.330869511634533,2.2514723563871555,5.406717160422541,b
2.5887465400578695,5.029533339738148,7.515789449730102,10.639375033731332,7.9449089211142425,2.0551189306343804,2.206864093350297,5.134893762636652,b
2.1074200181180673,4.796559724868301,6.917356502643234,9.982552221866559,7.561658255606853,1.773974379033799,2.288137519296202,4.903455081854247,b
1.2767410561481298,4.427207737168238,6.090864889263361,9.106835784233931,7.127126133138165,1.572607077280757,2.447616470310997,4.615391029449826,b
0.14066229670472855,4.004744838196553,5.140172782517946,8.100465948013799,6.684521409641363,1.4877839842235192,2.5725043366867735,4.179640604635367,b
-1.2068679918629583,3.5646974000394764,4.1506811615155454,7.073221048879337,6.2569218950206125,1.4844401493533486,2.5706403107534355,3.5981020383803775,b
-2.6316384049261785,3.1061830306691567,3.171789532888513,6.105272572313281,5.849395505696199,1.4825634558749612,2.443289913370436,2.985434795480626,b
-3.996000178040668,2.624206318808753,2.2255301940863026,5.2243320710777486,5.455237222541748,1.4116249807063463,2.277460304122031,2.49877375495145,b
-5.207430984711518,2.1195715495316554,1.329967869212061,4.42594521949804,5.0649635094925,1.2576192839376106,2.1677623026614214,2.2377031850580744,b
-6.219411928608574,1.6124212468727315,0.5359087770828201,3.725348219087562,4.687488209418197,1.073504591702192,2.14142280775436,2.199591391631459,b
-6.985794560480895,1.1690143183504855,-0.050925517378501615,3.1953767514620184,4.368938186966021,0.9409928435512084,2.1488697087622706,2.315941464295223,b
-7.447692342190592,0.8856568596165069,-0.3069793472184041,2.9425348072199395,4.17665806580032,0.9057647602045401,2.119919469266235,2.519839368791951,b
-7.458295954759128,0.8974812164591702,0.2643813162654901,3.3969685430036,4.266188582488691,0.9644214480253108,1.9409866660700197,3.0887349338534595,b
-7.1738418154362735,1.0452405260730886,0.8540485294350351,3.895121141531086,4.453095794577174,0.9290304110678649,1.9215330172812632,3.421990696529197,b
-6.811040567452385,1.2040942722284158,1.43122621892218,4.348408953838492,4.639465034693982,0.8594120289746463,2.007964413432252,3.7342099165849993,b
-6.811040567452385,1.2040942722284158,1.43122621892218,4.348408953838492,4.639465034693982,0.8594120289746463,2.0079644134322514,3.7342099165849993,b
-6.3870920464905465,1.4101074347568585,1.9285307046473459,4.666482150829396,4.7993146807718885,0.8585160339232669,2.1593315199090117,3.980375105934653,b
-5.867923327294446,1.755658588612959,2.395946089550173,4.886827828496068,4.974289621967367,1.0548927675341004,2.3166171964134015,4.155262931932336,b
-5.197476833208993,2.344535938010994,2.955665972450247,5.13304970720566,5.263717482755741,1.5429238219632537,2.489575156591111,4.304622305106012,b
-4.346717453767338,3.249044078737982,3.7078265416391702,5.512341350164318,5.774393874903109,2.3463394145724616,2.779276216217166,4.4915121794047534,b
-3.373892449814934,4.458493949522262,4.641478687789495,6.025825875369892,6.54770937564634,3.416783075053685,3.302458237405279,4.746604450670674,b
-2.428273295291318,5.859771879360233,5.624546116228674,6.565524194625029,7.517986620949254,4.660498350580647,4.0862189296746685,5.049458254486227,b
-1.651704408129466,7.299370632757198,6.4956001789334765,7.00473447021613,8.543490350903728,5.972382517857851,5.032106938304848,5.356112479714061,b
-1.055005488122541,8.679763013146623,7.183952099685085,7.304913073319112,9.487948197256104,7.2565601468995045,5.979851894610145,5.643280686291528,b
-0.49850178999025285,9.987111856309953,7.753222392763851,7.546557871558585,10.28728125720513,8.430130209300813,6.80981891072999,5.927394334043067,b
0.20195116196454937,11.236069226163007,8.339077259477985,7.862265321535,10.957522507947655,9.423241631666755,7.494916872395114,6.242192015051608,b
1.1439048954333952,12.4150413698848,9.04204535094765,8.332387701986388,11.548514414080133,10.183651928470901,8.063096760518743,6.593234215322058,b
2.272381817041973,13.476404430329575,9.850242156627903,8.921810030707197,12.076103962869757,10.677120451515027,8.511692565280889,6.926162298520443,b
3.393692140677904,14.335185949264886,10.628566522137875,9.494191885543843,12.474585703345229,10.874931180854267,8.757199794002101,7.137706000079598,b
4.261078234444556,14.86644471631449,11.181457229428831,9.889284333286692,12.610345261423191,10.74115377037499,8.672079789673491,7.128250399215108,b
4.716949637555399,14.954185105395547,11.36874031310961,10.017892781458993,12.365949908057678,10.245445700870448,8.181228948181014,6.862517060755191,b
4.81369047135367,14.591897355359503,11.20775578010257,9.918863662277241,11.741943316648756,9.407802966024457,7.338605197375931,6.397887918307306,b
4.8002010956552095,13.932407814680715,10.879491695087939,9.740348489108467,10.892425952919295,8.343848897526744,6.326039379834641,5.864628342010768,b
4.959900219040177,13.213626883298,10.622825474003406,9.655650658130448,10.058496496933122,7.26177480052918,5.38135311711346,5.4147287286588,b
5.427392744914546,12.622981529888094,10.59475308768285,9.769930452096272,9.4475542635662,6.389008686814977,4.705736295970448,5.169340396867601,b
6.121901987000294,12.215275198900496,10.795356150525183,10.07669773587672,9.142358667332516,5.864218919619331,4.3965346781844215,5.186642056505661,b
6.821939901714049,11.923479952192073,11.095761048574893,10.48371907606057,9.091705442441809,5.672745362481625,4.428912434422063,5.4578891735772,b
7.3150914681468695,11.63490579390852,11.339409801645912,10.883969577621567,9.17907759272966,5.6848559831115075,4.692756815596387,5.928266180557609,b
7.538090107070848,11.29585768824618,11.45100188789083,11.222542378951868,9.319828802179504,5.774861962105636,5.070380996159882,6.528679611132877,b
7.619688826832683,10.98113467298925,11.47688432808335,11.509991214148362,9.513156493632009,5.92071412782016,5.508934185258975,7.197608248621968,b
7.770477916265935,10.843177582459292,11.515340968213266,11.767267534195577,9.800301435292445,6.19179695289508,6.029199379277751,7.879499777414047,b
8.08483574825792,10.950446401550526,11.588285944586454,11.950130512760953,10.162808125834735,6.633270709019719,6.653408853734073,8.506642659351932,b
8.432496004837995,11.172189992382515,11.576794912304944,11.93360672056468,10.462493046429273,7.153675413450915,7.307749905378119,8.985998128600801,b
8.550799792192525,11.248804962077383,11.290878185446527,11.587331410443548,10.492607387353637,7.52264102042728,7.792494410048836,9.209135584507994,b
8.246595297694617,10.984465550560884,10.609921151033054,10.880310811913521,10.103070032836902,7.492186412601403,7.869547538964293,9.088830817686407,b
7.519726596241322,10.36966130178103,9.567524362113195,9.919530908319867,9.296953877707647,6.954269382123296,7.4196466378080075,8.608125285746848,b
6.52833196573908,9.542930869437303,8.323536829444595,8.8881330886481,8.228501463388652,6.01583356826926,6.547933171483351,7.850973486966235,b
5.46685473586318,8.6696481913902,7.067913816970991,7.9373170231200705,7.112089391487163,4.929996909174844,5.538538510859102,6.983106412661731,b
4.461328734160531,7.84769126432344,5.933659587892627,7.1178038627759666,6.106943884889523,3.9312984603069503,4.676319219610684,6.182924352786513,b
3.538638866467598,7.082596269035614,4.968356868572944,6.397248847871073,5.2546650784870605,3.103397679538579,4.073874206298717,5.56671990826018,b
2.679737835232333,6.33379224089695,4.1718744385967295,5.740742991172082,4.513628553037888,2.3823312811123394,3.6462281988584144,5.1627217405589745,b
1.9106058324431252,5.604481625890173,3.5603648126297096,5.180413341973585,3.8580256533218362,1.67714618835203,3.2442923033004134,4.944833138792457,b
1.3298523334657109,4.989990632097757,3.185377074503677,4.805204314364571,3.34342015933347,0.9856022451231281,2.8132213809369615,4.882015133052377,b
1.0177386230265104,4.607587023962364,3.0763619985952766,4.672521668118245,3.0672567265699966,0.4002303959563168,2.429132902007246,4.9525930150812165,b
0.9184882385623065,4.465166093189009,3.1688678759514963,4.725575140860319,3.0634777212177378,0.015014001272206284,2.197113360694871,5.120019029811505,b
0.8484638568096592,4.425120864211069,3.3128350763529184,4.805695285660812,3.2430206832577975,-0.16789179336707524,2.1273252175269666,5.312816981351412,b
0.6438727680571876,4.3166772638111395,3.3673613810365866,4.758959668295559,3.4408828815900785,-0.2485597970048774,2.112656184086524,5.445449585403782,b
0.2944324678710011,4.070033471068133,3.288111388394215,4.543597297098654,3.522025115886892,-0.3588541154353031,2.0201541910867116,5.468410794275659,b
-0.2599785009254184,3.4271583545503397,2.989078424563004,4.017771007208544,3.317781906754848,-0.8841381418960335,1.5244280372841474,5.309600054975528,b
-0.18468837412524114,3.22833063522213,2.9421267586964444,3.95397962553212,3.226214232969024,-1.1955493943262365,1.3047105227620546,5.25677538126849,b
0.17257765837320185,3.19122864458693,3.024889747860355,4.059773381858902,3.2685082306703137,-1.4142967673359654,1.212627813336456,5.246722478815224,b
0.17257765837320185,3.1912286445869293,3.0248897478603554,4.059773381858902,3.2685082306703137,-1.4142967673359657,1.212627813336456,5.246722478815225,b
0.7405584801790861,3.3063383278125187,3.2257370398789567,4.251624149707249,3.4494958487416083,-1.4897061017620987,1.2288096652211669,5.228827702392754,b
1.419001226334398,3.5130252272039164,3.4980729543266946,4.4240609609074815,3.7023041314194067,-1.4334733377120243,1.2789933554023247,5.1473335112467264,b
2.1404448799870925,3.7474533621664463,3.785952139834653,4.519110181266351,3.9466508888594545,-1.2983382983414216,1.3005511408657624,4.995606278801688,b
2.8836557645720062,3.9842094319465766,4.043168386825238,4.549369625501842,4.138713394096427,-1.1444047944290707,1.2745990887450196,4.8200370235387195,b
3.6253226018561007,4.220058891932835,4.2339783479118145,4.5623247070863195,4.2716684633108075,-1.0175772291600287,1.20428797427428,4.666811357528508,b
4.304623476053652,4.437134313007727,4.335960947353431,4.588302558220696,4.3465671150709015,-0.9434101111199709,1.0799928474305598,4.52668492558746,b
4.862512774648034,4.613781301455003,4.359388360295803,4.622869246202297,4.357322905622331,-0.9283380082917752,0.8772957714697215,4.338769284611533,b
5.2998795181101,4.759462794114968,4.3517630219499726,4.646119982426283,4.295119546334985,-0.9688749598372105,0.5839670300567236,4.050952261489336,b
5.657263369626455,4.895392185347034,4.3543338666362414,4.641191340144821,4.144759486028331,-1.0748676634088974,0.2134359562003192,3.671458819610225,b
5.928637685946773,4.990710508474774,4.343118592570814,4.590668778000938,3.867697867865265,-1.296969440409243,-0.2195893536014578,3.2551699621278964,b
6.018498387466771,4.949259540393894,4.225263120424553,4.467885730543906,3.4001889569697332,-1.7289597843593079,-0.7362075306787534,2.839198739220424,b
5.796645630097932,4.678889415781625,3.9072167861861695,4.245362821075925,2.685831501956847,-2.4625178132356327,-1.3935620001533948,2.3986424440930443,b
5.1963411643863875,4.169964832244272,3.3765351654087645,3.9193926892726823,1.7287510612375017,-3.5074310236208666,-2.2248867919326796,1.8787409951191751,b
4.284610921982777,3.5228167600679585,2.736844657956649,3.5350022308850497,0.6386539080221114,-4.726333679976941,-3.153553581571233,1.2870446213234448,b
3.2760723909769083,2.9363683145486688,2.182816112139073,3.194256490773671,-0.36186858702253294,-5.840124906134248,-3.958359648566737,0.7624194217238127,b
2.472095775398249,2.6646649539219363,1.928065294599012,3.0307898598376233,-0.9960507180130385,-6.525630858590944,-4.350152084635799,0.5389517115046061,b
2.12229736076033,2.9136726400148403,2.1069175473111947,3.1468276086143243,-1.0568997036774186,-6.565314277212897,-4.137578076317584,0.8025203924763067,b
2.28194026172705,3.7097312214953986,2.696393518011237,3.545171556732998,-0.5321778272163112,-5.961486320847382,-3.372315467022883,1.5367829908530863,b
2.786178981230674,4.8559383125621105,3.5185861926718522,4.1128039942492745,0.36844008487740754,-4.935701918464092,-2.353426760507836,2.4864757499798693,b
3.3758595834217835,6.043672051249798,4.338484737872952,4.684504781296161,1.3283530209987977,-3.8006780264824345,-1.4602523977882238,3.291173812175245,b
3.874643046247896,7.0391761838198645,4.999684031892292,5.151260627381092,2.1163698612788258,-2.7773031883000696,-0.9127029922432042,3.711444870331733,b
4.2921868981071345,7.804891553499617,5.512082884565661,5.537063941084373,2.7236303493785146,-1.8782558320580023,-0.6300153871091708,3.7828172055901192,b
4.805789952146087,8.48615044092389,6.034049675499136,5.9815538550730984,3.3397745971954462,-0.9510262349811667,-0.30952799198287906,3.7679553951750195,b
5.63451633398168,9.276674443578319,6.74333701933489,6.623541876716899,4.166795368467819,0.13359412640847487,0.30827463727016474,3.9238052810533843,b
6.852440638245698,10.22370067652441,7.656877560996937,7.4520898452159745,5.1903381878368675,1.2823914577785884,1.178588575235223,4.253844358588024,b
8.249921727234659,11.094651155837242,8.52517604448512,8.236444788258854,6.087952432614959,2.1379439413848664,1.909300237176156,4.446580524662111,b
9.380851289215252,11.4488065590551,8.917282944165112,8.614621712167008,6.379997453757847,2.256305524374148,1.995931886640958,4.0673053866468845,b
9.812367674685856,10.91811785405371,8.47612373275387,8.306277671101316,5.74042725389817,1.3910969514278626,1.1704389146001049,2.869625122341674,b
9.398954778519435,9.483889703895759,7.162015731096973,7.302164737005768,4.233246102993209,-0.3261635290809325,-0.40246711421625675,0.9930673968474547,b
8.36361729570436,7.507284750749544,5.291439256763665,5.88326780342817,2.284216885141976,-2.4476914255446287,-2.230735030718081,-1.100581863247542,b
7.1400320877271195,5.498622334018587,3.345735837684933,4.451981283219389,0.4124367273679499,-4.467720440246248,-3.812903943969053,-2.9000440002768064,b
6.113110237351164,3.830818421264907,1.7011506851004115,3.3009602475014423,-1.068157333545193,-6.09130822064649,-4.924947253251142,-4.125874623204596,b
5.427492561512335,2.591382922116202,0.4620776194298667,2.4803837387299885,-2.1703290882824717,-7.3365878541057326,-5.681610769333824,-4.832189362034823,b
4.959174388460822,1.617092253336289,-0.5192997133747219,1.8386995201361038,-3.126559825313702,-8.426882274804566,-6.366076984379026,-5.286576245689867,b
4.456048477873371,0.6552937757771392,-1.475737369509719,1.1867498280405187,-4.161598100636246,-9.573830601398559,-7.184191692290485,-5.742393027407759,b
3.754792916134048,-0.44260533358309984,-2.531114494133111,0.4577436217483826,-5.313891119832453,-10.810143474276348,-8.123058392322795,-6.2717177389156245,b
2.9093593433815816,-1.618974970260886,-3.614185730524156,-0.250139764855721,-6.422195750752998,-11.976170046113467,-8.989374062912031,-6.756645247222541,b
2.1284065834259014,-2.677909555033971,-4.531574581700886,-0.766092843307782,-7.265064007416681,-12.845744553699685,-9.566807645410037,-7.012448290849496,b
1.6006513018001491,-3.4515274382097934,-5.119650931410119,-0.9855362711323314,-7.724963078978095,-13.280833658400283,-9.762864348634125,-6.936094290245618,b
1.3841857012237209,-3.8998903135736844,-5.342030256192071,-0.942629502533249,-7.846279834853813,-13.301508118202884,-9.649720467206274,-6.583256087284366,b
1.4290150470693228,-4.0817231650648855,-5.281707763459568,-0.7799125333890228,-7.771309051324107,-13.041396003311784,-9.396197593574152,-6.1447770327747175,b
1.6484863978479871,-4.087744921205426,-5.082663326837361,-0.6691543553025261,-7.645506906077884,-12.648320244275238,-9.159283636683165,-5.855901711803364,b
2.2576447505885753,-3.9773870306985515,-4.85295041935977,-1.1056023002813695,-7.615700693186857,-11.749835898603868,-8.923246141902881,-6.307285244440682,b
2.5042777534839353,-4.013782824172495,-4.978101922771506,-1.7431475513005317,-7.794678362299756,-11.251378270525699,-8.835142450642252,-7.008884318747701,b
2.6751199052564667,-4.096282185679482,-5.203461047934633,-2.596755103325766,-8.078354737591962,-10.717531517347819,-8.70936337744457,-7.822788774721983,b
2.6751199052564667,-4.096282185679482,-5.203461047934633,-2.5967551033257665,-8.078354737591962,-10.717531517347819,-8.70936337744457,-7.822788774721983,b
2.7729254357550817,-4.15301951542523,-5.39843498021203,-3.549280246016753,-8.391817279318552,-10.194409539043132,-8.586424811028147,-8.570270569206654,b
2.7884256844227586,-4.159055761589253,-5.467079582531135,-4.485755199254204,-8.653404970358565,-9.770741946677916,-8.566612327741822,-9.13964448822352,b
2.6919581814201092,-4.173065417972826,-5.415089600066999,-5.342205394567421,-8.814713797884295,-9.543063161367456,-8.734990776971916,-9.501159725423367,b
2.4440472508026874,-4.30097051744939,-5.339608667180253,-6.113661663598127,-8.872829790901747,-9.56227439268778,-9.079905837608148,-9.66493956087877,b
2.011419030956577,-4.628141158367992,-5.347934062100501,-6.813398387629656,-8.8446072968222,-9.789800140777247,-9.470594080394866,-9.623599090662408,b
1.4012861244264219,-5.150282518714663,-5.456440423490264,-7.413157934152641,-8.719105134320277,-10.092360893053918,-9.719974540366051,-9.330065792867513,b
0.7032625841164121,-5.731529294383167,-5.545100988758855,-7.816086113790287,-8.42792391308989,-10.287758081843329,-9.693953711673045,-8.728269173665373,b
0.07568174099273603,-6.151533104256841,-5.423795204471812,-7.89975668277615,-7.874623072797529,-10.225651455104053,-9.389374658393615,-7.809755377625441,b
-0.35003637751532474,-6.256574302411167,-4.980816333828676,-7.610749468553784,-7.018598624041735,-9.860160703053808,-8.921982432493394,-6.649495382232528,b
-0.5616051677051812,-6.095634619906377,-4.291971340696127,-7.034854815871957,-5.944855812593874,-9.26532664548642,-8.433501823894172,-5.392286804314406,b
-0.6506047615215029,-5.8919464055542985,-3.584359634530274,-6.373561417797346,-4.846561261430792,-8.575707410369862,-7.991434613797919,-4.200541796386596,b
-0.7085279063966817,-5.862984238210528,-3.0801274363625906,-5.836950256913463,-3.9243086790595143,-7.889995118497909,-7.559309502369418,-3.2019320403561364,b
-0.75020617278592,-6.062346632604766,-2.855426464543656,-5.539233010454498,-3.285557561549029,-7.21248725811775,-7.053202091741601,-2.4693764156418943,b
-0.7298204449820216,-6.3773535040631595,-2.8268982986615336,-5.479366986239265,-2.9259361579269436,-6.48749194165821,-6.431777230360465,-2.036583992625494,b
-0.6112852862909365,-6.65586841820483,-2.863135237891222,-5.613509327087419,-2.799615092942203,-5.708742534201788,-5.75204291450838,-1.9283275151968398,b
-0.4278147705619834,-6.847648328305818,-2.923343678603981,-5.949596996920891,-2.9107825220854826,-5.010558473574436,-5.158634984193315,-2.1797097231502565,b
-0.29312214486067373,-7.0613486267611645,-3.108978809201422,-6.576999936223457,-3.3398236872790967,-4.6408326125122175,-4.817890737783122,-2.8282092108476258,b
-0.3466678672008385,-7.48897824732842,-3.5782733594914093,-7.598005783280916,-4.170956085648621,-4.808070395131297,-4.835569373750306,-3.8812810657035284,b
-0.6536383494308929,-8.2340566792358,-4.386937657097122,-9.01452343706306,-5.379799045216331,-5.518750617469845,-5.206514426765554,-5.2837081628369535,b
-1.1435098322205997,-9.184518323313599,-5.396100584795148,-10.670001141407777,-6.789195505399948,-6.551342028798563,-5.8270399932518915,-6.913536476654899,b
-1.6614244021726043,-10.066267481413108,-6.3386207020164855,-12.302960287997605,-8.145289289769847,-7.599505958886242,-6.556352572113771,-8.611712731883214,b
-2.087957169408771,-10.638179668856715,-6.985627514875152,-13.670385053521546,-9.247700269266067,-8.461958573542695,-7.276408631713673,-10.21971049304763,b
-2.4001584117754637,-10.833236250915983,-7.2631233883515,-14.642918801065468,-10.015367392278604,-9.11536854743485,-7.908542880562399,-11.595670736818096,b
-2.624662997537401,-10.723110778627426,-7.233505693608974,-15.2104793456275,-10.442905481189216,-9.619647420139724,-8.391099031635054,-12.606574201818864,b
-2.7652483904760627,-10.390576060871545,-6.992762551236775,-15.418354598176421,-10.514356888283016,-9.95991915006681,-8.65694954103685,-13.12080525669013,b
-2.790704807123382,-9.864080431763739,-6.58894604513682,-15.298601514941785,-10.169294472835407,-9.982547478501242,-8.641238904974598,-13.02439749653937,b
-2.6653387220713625,-9.147783411209929,-6.0129298507739515,-14.844097926750539,-9.346865989816896,-9.490841098838455,-8.311679459893817,-12.257680148963939,b
-2.358978230209206,-8.268161178354507,-5.2382676425740335,-14.027821239398463,-8.054102042531987,-8.414539315930776,-7.685439476346572,-10.842924279592914,b
-1.8249274441605756,-7.276664011884504,-4.259555864375184,-12.838371229857577,-6.388300332982365,-6.892939267036814,-6.806678769021062,-8.875018678732788,b
-0.9755079837340089,-6.209909111094897,-3.092667322357767,-11.299940700448882,-4.488995356756919,-5.186511713291891,-5.7008740265400615,-6.480552395453091,b
0.3257272423606827,-5.033939420160382,-1.7384217466751266,-9.467244224542156,-2.4601127451441593,-3.4916511534606007,-4.355523176930516,-3.78582061618185,b
2.237230101342119,-3.6221115919419207,-0.15800951976642272,-7.414554350585215,-0.3377441216820099,-1.827139850117124,-2.7613509969665704,-0.9298639089891644,b
4.855772357668744,-1.8295553584661666,1.6863947716655603,-5.241943886615615,1.855214279955161,-0.09518198746118642,-0.9890939520715601,1.890702032154378,b
5.623420036760154,0.355868653501431,3.7459766794919154,-3.0880943493903907,4.017526802404338,1.746502957572217,0.771936886837533,4.406240988861044,b
6.371668699747161,2.738489434595113,5.857139986857941,-1.1058193017382245,5.95167750065319,3.5737412516860574,2.2733704772800136,6.340415253730758,b
6.985855338616027,5.043529856578622,7.840574146826688,0.6179755698885285,7.472349939584861,5.162705694247748,3.347976665970111,7.539587926036814,b
7.41127651477572,7.155295159815111,9.653738445068903,2.1392753090463104,8.555564239459855,6.3798054949116665,4.031022235199762,8.07174503507392,b
7.658093915353253,9.21815807780921,11.437308205025076,3.636646350367711,9.376414680459707,7.316058582058631,4.55285249853631,8.198933858731897,b
7.740448471086667,9.460088253941757,13.388219972233026,5.273432324085331,10.179980753328469,8.232766803686019,5.183250091906308,8.218835811072388,b
7.610608384083629,9.699021572090157,13.282710204111126,7.044186906349516,11.092767733534359,9.357993165501787,6.036323875784305,8.287358434056797,b
7.143528373433275,9.870462657427442,13.032562381590537,8.743389738811306,12.037920335089888,10.707336903694257,6.9925942781393875,8.364563569690969,b
4.6144455259350465,9.360904502052021,11.662392476822372,10.96618411824865,13.296581421583443,13.196208028077887,8.291312833485964,8.150298755885888,b
4.944224304679758,8.459419887688563,10.45841576960385,11.444857870690921,13.506986113846557,13.924265159606517,8.471449555134532,7.983561022950259,b
5.229515177268906,7.207036757706487,10.920272585278864,11.796291897070088,13.640253045025792,14.306045877159466,8.514417654145753,8.069968351027336,b
5.229515177268906,7.207036757706488,10.920272585278864,11.79629189707009,13.64025304502579,14.306045877159466,8.51441765414575,8.069968351027336,b
5.472013722524946,5.7741352841475,11.230946598686149,12.244775826775648,13.88901674012303,14.493316579096685,8.585706673550854,8.559356333637258,b
5.673415519270326,4.2519034791891075,11.510057024260334,12.80680847892965,14.304123146983187,14.601349857789558,8.713055896009061,9.387867147633465,b
5.835416146327497,2.579297349664636,11.695035339544697,13.30031960533687,14.781318525886272,14.636593349497641,8.786792322594716,10.320847808231697,b
5.9597111825189115,2.6502676233484186,11.661315752183205,13.528434474653286,15.183192911719123,14.541959219629106,8.680986727910362,11.121958876139962,b
6.047996206667022,2.703532830096374,11.646466746053688,13.476530648404799,15.470226428409243,14.295158485878867,8.380337668880372,11.706316091580439,b
6.101966797594277,2.7384892002809096,11.632848885688219,13.349413507631741,15.716334645739972,13.955736564737535,8.000128909458608,12.154705031038327,b
6.123318534123131,2.7545329642744325,11.628179593671634,13.421520993129667,16.01103429145092,13.616999515179888,7.687624689344391,12.589444147162201,b
6.113746995076032,2.7510603524493495,11.6351855220162,13.832436193522033,16.356061292355918,13.312334528765689,7.497383682051161,13.029538371057978,b
6.0749477592754335,2.7274675951780685,11.651602552161604,14.488774882114384,16.647149604759097,12.96465074500721,7.347167315461465,13.350773876591393,b
6.008616405543785,2.6831509228329953,9.774231750815188,15.129200941381026,16.739697359768222,12.426419440919483,7.083066923393633,13.37541080565004,b
5.91644851270354,2.6175065657865377,9.852972858120395,15.483273963683013,16.53508044092565,11.581311602251342,6.592728443152805,13.00528964256166,b
5.800139659577147,4.287103854175494,9.666783731531122,15.407870979166564,16.030624263338407,10.43419400382369,5.881318000352856,12.290814879980037,b
5.661385424987061,5.763988105847461,9.207547242293295,14.92986588052187,15.318351340302101,9.13403032738238,5.070627474517418,11.400380131897258,b
5.501881387755729,7.173722581968171,8.586887180656486,14.200275511375517,14.552002125724025,7.925526659257723,4.3404301895787825,10.535549973566106,b
5.323323126705606,8.71597773345577,10.006366114847037,13.40667092523062,13.905088176136235,7.06156348035814,3.853185278090195,9.853523420273252,b
5.127406220659142,8.637453530753355,11.698037872540834,12.684431815984889,13.522907862558316,6.714699616573239,3.693229471587645,9.42383177166676,b
4.915826248438788,8.574999730760396,11.678214504764878,12.052618640321386,13.465942676275251,6.922062904220624,3.8421907134813926,9.221292963270997,b
4.690278788866993,8.525962006933568,11.66958685060749,11.403845881595581,13.67084994372586,5.7277746433777565,4.206705567992624,9.15773742306856,b
4.452459420766212,8.487731787393084,11.660799715429121,10.572329698451451,13.976201416129731,4.787411148192242,4.688748324918375,9.14531437843509,b
4.204063722958895,8.4577462549227,13.490410268266217,9.457234694819082,14.21898788083099,4.209674342053823,5.250109129406421,9.154618877265774,b
3.9467872742674937,8.433488346969703,13.01429376832169,8.12005565141892,14.332824478027064,5.489996208786836,5.918571924265293,9.22299878968332,b
5.878294111448396,8.223472433721966,12.470948581729896,6.7748705703216086,14.362839766035128,6.872593089554849,6.733486398356563,9.406094929735143,b
7.584247579453233,8.043738891855588,12.039477082412596,5.666225966709263,14.387266564116526,8.31215538794455,7.683598497606733,9.712232807228823,b
9.205424244791079,7.9229442403880395,11.773106315385595,4.917164311689411,14.421722421297224,9.695146564110065,8.691365769983125,10.069081849011463,b
10.794529944290193,7.724641117516204,11.542495914469015,4.4543063170671,14.389414683805484,10.855649667567207,9.64955800990919,10.345238154110364,b
12.311938003798307,9.173577892467994,11.116375607229703,4.063259169225651,14.175011555411595,11.636030246673988,10.471324825324361,10.41300642508231,b
13.661847086229363,10.543120323471996,12.357184215305466,3.5396503415423113,13.714561575096468,10.137657384326001,11.11171767218178,10.210936008966858,b
14.754323212378248,11.73441907994931,13.422473679512695,2.8367974172425816,13.055499436752973,10.127559467018479,11.550565184594358,9.761090344566686,b
15.574968676718566,12.702924316163362,14.280462107081544,2.1104514157254544,12.3451482331897,11.548304327933653,11.762823867988176,9.129828285117938,b
16.21401779900382,13.498045988145444,13.158786152177223,1.6278493301822827,11.75258383356971,12.558029342662984,11.711809107936109,8.370004530407112,b
16.816521740577354,14.226915674005323,12.427767108819154,1.5990257417265117,11.372507304289993,11.710420921068271,11.371275849507272,7.493658279428759,b
15.284784107943384,13.394068096044379,12.085655145579363,2.03582257275982,11.168289281561815,10.779818012276383,10.741118158776805,6.481867684339328,b
14.005438374736702,12.676443980426775,11.913447260450521,2.7173714570093983,10.977048309940063,9.700513615870985,9.821058344471286,5.298392212344494,b
12.672941059881133,11.782883620777755,11.583869414745546,3.2750748724232133,10.564466338871672,8.314322063583734,8.564181218722691,3.8917057686548517,b
10.999789109734177,10.477128214532332,10.808338574773364,3.3573530142931935,9.71609441527566,6.4572194066050885,6.885646971434963,2.217508452138317,b
8.838419639271365,8.672923586586405,9.468074448063337,2.80343460433294,8.35192123335796,4.104000628250156,4.767283734976205,0.31055116798357246,b
6.255197554688587,6.482184631188334,7.6783744442332305,1.7342012079239286,6.609712806936622,3.28781048231236,2.385831110700494,-1.6360201011263253,b
3.4890687301834844,4.168690148752185,5.727208096083015,0.4834191014734003,4.809297647794985,2.541780913837249,0.12485744707015964,-3.279142404233519,b
0.7779791463837601,1.9803290358024874,3.889309420779236,-0.6170236314214108,3.2743568299576653,0.6282688811311719,-1.5917368722791239,-4.2693768733865864,b
-1.8234884606574149,-0.031229327460308553,2.234163979110386,-1.4623433109996804,2.123383583893502,-0.5422420266801515,-2.5414871629945694,-4.454358858599194,b
-4.469467443442205,-2.033715996734313,0.5830500847504844,-2.241503721807839,1.1974233410225466,-1.1285422214515832,-2.8320549096586687,-3.98997936864538,b
-7.370914866984753,-4.255631687672654,-1.3455457740532775,-3.2887969215831396,0.1872006154616158,-1.4985087471489744,-2.813635018906481,-3.2601748713957024,b
-14.043133609847157,-7.683861037961947,-6.450980003976298,-6.80890663135641,-2.802355178662707,-2.7301968766935767,-3.0955338427233707,-2.346982742468707,b
-14.7007711422013,-8.244557956038701,-9.249726671187187,-8.90644998544408,-4.599260115874045,-3.66489539500549,-3.506715809925308,-2.2875784795072187,b
-14.808633826422161,-8.363128277653198,-9.655403040280573,-10.740111479096761,-6.305621969411485,-4.6961672809397,-3.9390152865652377,-2.33002041175765,b
-14.808633826422161,-8.363128277653196,-9.655403040280573,-10.740111479096761,-6.305621969411485,-4.696167280939699,-3.9390152865652377,-2.33002041175765,b
-14.336374356012453,-8.057986682714425,-9.602028840023367,-12.100002270043788,-7.843289849486117,-5.840384942270578,-4.351882409101856,-2.4606847620946284,b
-13.432243935743111,-7.487657628828316,-9.251087983352694,-13.066992485589514,-9.345611526738645,-7.240367530947728,-4.881515226512098,-2.8896384959804204,b
-12.319180335879405,-6.849085952998614,-8.825913699725955,-13.934022154164797,-11.050648473662887,-7.162445999458835,-5.7565304458352635,-3.943932377323108,b
-11.14154029277751,-6.236967576117894,-8.452386372301373,-14.997724337994764,-13.119998928335491,-7.415882476305407,-7.132742727760838,-5.84841679685927,b
-9.889931481213669,-5.584330403703698,-8.074819177696698,-16.38091533946082,-13.321968663796744,-7.849744854688945,-8.985859839460918,-6.481760217402012,b
-8.451508951932485,-4.7290054017966,-7.506500004015303,-15.87607013346142,-13.366987967602523,-8.19729431780915,-9.322656336588622,-7.21346198521159,b
-6.717135301720961,-3.530149562104035,-6.562233386887439,-15.069104782261011,-13.028441805076383,-8.217125577871462,-9.429737084120895,-7.734414987438086,b
-4.656756524826607,-3.828998597134352,-5.171346978146664,-13.853336324388408,-12.215359926288416,-7.789802169032524,-9.184518974390375,-7.86762613531946,b
-5.011036154510331,-4.113209633054732,-3.407827143728806,-12.291297234343558,-10.98827080851107,-6.922941818311858,-8.606666071580758,-7.611091092013908,b
-5.363368227244185,-4.3830368773077675,-3.5602532945755065,-10.562971572484912,-9.493469559103545,-5.694050953385586,-7.802574679290897,-7.06656216781181,b
-5.713559018061194,-4.638734537336051,-3.685020683300354,-8.85674229973603,-7.870234945004787,-4.191144564584789,-6.8803653609414654,-6.3236353359620905,b
-6.061414801994393,-4.880556820582172,-3.783689108236654,-7.268451624575539,-6.184024247231938,-2.4860628789721755,-5.887384219967546,-5.383433870176138,b
-6.406741854076806,-5.108757934488724,-3.8578183677177167,-5.760956666376239,-4.41185125280284,-2.5136276021046173,-4.795057670561368,-4.16040874414187,b
-6.749346449341468,-5.3235920864983,-3.9089682600768496,-4.196759576822005,-2.4701908143126654,-2.5110834322205595,-3.5245823781383203,-2.5402004412765917,b
-7.089034862821404,-5.525313484053488,-3.938698583647361,-2.4118792480313,-2.4691524822723503,-2.4764206170875873,-3.4313334781353895,-2.530698017780902,b
-7.42561336954965,-5.714176334596882,-3.9485691367625586,-2.4121981738614697,-2.452562159967349,-4.035026900949627,-4.658110791977138,-4.17477802183289,b
-7.758888244559229,-5.890434845571074,-3.94013971775575,-2.39193247186822,-2.4250829929860127,-5.3193313313613535,-5.634196853797132,-5.5721576889917,b
-8.088665762883174,-6.054343224418656,-3.914970124960243,-2.3574373132942528,-2.391378126916691,-6.380753725656189,-6.345781338284926,-6.638778820394501,b
-8.414752199554515,-6.206155678582219,-3.874620156709347,-4.192159708586595,-2.356110707347734,-7.330506929726174,-6.864818583430628,-7.39166630185219,b
-8.736953829606282,-6.346126415504354,-3.82064961133637,-6.025100729972792,-4.325551544708707,-8.331524292253023,-7.3463879937841154,-7.996162721996025,b
-9.055076928071504,-6.4745096426276545,-3.7546182871746168,-5.98450414580157,-4.300708819790982,-9.544200200199311,-7.957366723571381,-8.709626301120055,b
-9.368927769983205,-6.591559567394711,-3.6780859825573997,-5.950940187223953,-4.285215532336831,-11.051621176529485,-8.782480764588941,-9.750070390312745,b
-9.678312630374425,-6.697530397248114,-3.592612495818024,-5.926253903310455,-4.278459206560019,-11.008366619946859,-9.780270539057819,-11.181441291328582,b
-9.983037784278187,-6.792676339630459,-3.4997576252897993,-5.910574469644101,-4.277189555987022,-10.989442544958893,-10.825361070932106,-11.144939663943358,b
-10.282909506727524,-6.877251601984336,-3.401081169306032,-5.902315188320425,-4.275518483457021,-10.987286338307834,-10.357214837907891,-11.134041452990157,b
-10.577734072755465,-6.951510391752334,-3.2981429262000312,-5.898173487947474,-6.211487999022707,-11.060599656686072,-9.937542803277926,-9.438407076756103,b
-10.867317757395035,-7.015706916377049,-3.192502694305105,-7.789163688189167,-7.9426583514123745,-11.161373356187234,-9.626763754461583,-9.5399333791184,b
-11.15146683567927,-7.07009538330107,-3.0857202719545604,-9.573779250989883,-9.491081882418102,-11.231580832131332,-9.465765336945802,-9.746829155643145,b
-11.429987582641198,-7.114929999966989,-2.9793554574817067,-9.35963612350611,-10.876339736834606,-11.203230509848604,-9.403789308166655,-10.058963877881293,b
-11.702686273313848,-7.150464973817398,-2.874968049219851,-8.992083253811613,-10.138191239987766,-11.014444498907213,-9.336907293974098,-10.390125934118085,b
-11.969369182730249,-7.176954512294891,-2.7741178455023014,-10.354237879486645,-11.378015709944782,-10.65047944704141,-9.213759993215673,-10.637488684213578,b
-12.22984258592343,-7.194652822842056,-4.7447283591354505,-11.639137639510249,-12.73589801417193,-10.16166746839359,-9.098674601920752,-10.76803398541911,b
-12.483912757926424,-7.203814112901488,-6.690356235756705,-12.94733879119013,-14.3228709292404,-11.441530485573239,-9.126401062217527,-10.834637812984901,b
-12.731385973772257,-7.2046925899157745,-8.663310784983679,-14.347147768152576,-16.1455596444874,-12.845832465181388,-9.387163061253336,-10.839068982255577,b
-12.972068508493962,-7.1975424613275125,-10.677147370885068,-15.836873750479047,-18.102526706597978,-14.235950194519225,-9.844373525011557,-10.842002097497609,b
-13.205766637124565,-7.182617934579291,-10.630943529070578,-17.358034983815106,-18.11075369139478,-13.791520382692877,-10.358952617076497,-10.840809007448849,b
-13.432286634697098,-7.160173217113702,-10.600176746834526,-16.945760201656217,-18.222876325085917,-13.384184080602969,-10.802938975062258,-10.727741434237753,b
-13.65143477624459,-7.130462516373337,-10.585266561221907,-16.559741506382736,-18.431421873714346,-13.093958816737885,-11.164494621973136,-10.458509400546893,b
-13.863017336800075,-7.093740039800787,-10.586417374834259,-16.222626823177787,-18.81659830269096,-13.02793611936877,-11.545136573109446,-10.098067323750177,b
-14.066840591396579,-7.050259994838646,-10.603618455829658,-16.008358329495046,-19.45173407429315,-13.233746423605345,-12.041495829603887,-9.701392107572843,b
-14.262710815067129,-7.000276588929504,-10.636643937922724,-15.955075756691638,-18.208301276240185,-13.642713872696087,-12.615153663703907,-9.221282109350813,b
-14.450434282844757,-6.944044029515953,-8.618689105911537,-16.011727436720765,-16.847778075829062,-14.102941963707929,-13.075942146795182,-8.51811472247494,b
-14.800666050853366,-6.813848279945992,-4.670258771247157,-16.03429704817399,-13.42668149198993,-14.74542449689701,-12.925288267301989,-7.981097962115259,b
-14.962786901150405,-6.740393504674766,-2.675080517899308,-15.901045962805615,-11.463315940681095,-14.967888882135819,-12.363557453936675,-8.509744687072631,b
-15.115986095686647,-6.661706405669497,-2.7627469414970873,-15.731517943860439,-11.448689745850242,-15.243375445817207,-11.780441354450202,-9.137939627740584,b
-15.115986095686647,-6.661706405669497,-2.7627469414970878,-15.731517943860439,-11.448689745850242,-15.243375445817207,-11.780441354450202,-9.137939627740582,b
-15.260069909495112,-6.578041190372778,-2.857823680133359,-15.617905216013906,-11.449478794289707,-15.60722580155678,-11.39650213570987,-8.426238141721546,b
-15.394844617608834,-6.489652066227203,-2.9597191877068516,-15.640848139263914,-11.48639065692743,-16.011906175913783,-11.262005314212946,-8.183606242283778,b
-15.520116495060844,-6.396793240675358,-3.0678419181162946,-15.852065103822602,-11.501306065012816,-16.37520077360677,-11.258393418843058,-8.297690181271097,b
-15.635691816884167,-6.2997189211598394,-3.18160032526042,-16.270479195895867,-11.432843023544248,-16.650588447400583,-11.220920697000624,-8.626229688602953,b
-15.741376858111835,-6.198683315123239,-3.3004028630379567,-16.877481624970752,-13.359433545942116,-16.854713674978886,-11.07399842960351,-9.085335843420854,b
-15.836977893776881,-6.093940630008146,-3.423657985347635,-15.545796899310947,-13.353921563703361,-17.027806664328068,-10.86787842559366,-9.645957346931457,b
-15.922301198912331,-5.985745073257154,-3.550774146088185,-14.18910722669994,-13.350170763832967,-15.372440267827216,-10.70172589655386,-10.266203280774226,b
-15.997153048551212,-5.874350852312853,-3.681159799158338,-12.821679641241602,-15.33627166730117,-15.426952935617203,-10.62170378952612,-10.850306015992992,b
-16.06133971772656,-5.760012174617836,-3.8142233984568223,-13.321963702515077,-17.170911368452984,-15.338356188135924,-10.593051379305388,-11.289474089519299,b
-16.1146674814714,-5.642983247614696,-3.9493733978823693,-13.725898906128544,-16.93515786600323,-15.125664508372092,-10.559436642912182,-11.54591948646738,b
-16.156942614818767,-5.523518278746023,-4.086018251333708,-14.155953813850456,-16.76549666794963,-14.890278640406214,-10.514651110546358,-11.691138505711518,b
-16.187971392801693,-5.401871475454408,-4.223566412709571,-14.692502275299649,-16.750049955516268,-14.738393079738188,-10.507612242356704,-11.851982845743205,b
-16.207560090453192,-5.278297045182446,-4.361426335908687,-13.174440714095287,-16.890785005442975,-14.686930563964456,-10.577359353860256,-12.105618379196951,b
-16.215514982806305,-5.153049195372724,-4.499006474829785,-11.481320097705103,-15.060790199492468,-14.643725561467738,-10.691301697335387,-12.415141453279464,b
-16.211642344894067,-5.026382133467838,-4.6357152833715976,-9.576466617369974,-13.13433399214443,-14.4895404688334,-10.761987177963821,-12.66797103325958,b
-16.1957484517495,-4.898550066910377,-4.770961215432853,-11.412384164337585,-15.111430098368851,-14.199980643948019,-10.738591509423154,-12.789085393537784,b
-16.16763957840563,-4.769807203142935,-4.904152724912281,-13.041368215591982,-17.046858728231925,-15.701000618600341,-10.682679785960215,-12.824752080718762,b
-16.12712199989549,-4.640407749608103,-5.034698265708614,-14.551382022212328,-16.998436608549525,-15.613115660999114,-10.737049136896248,-12.908624018845355,b
-16.074001991252118,-4.510605913748471,-5.162006291720581,-14.167756706604274,-17.1359315328779,-14.085183662639915,-10.997410390165793,-13.131438236267627,b
-16.00808582750853,-4.380655903006632,-5.28548525684691,-13.894723196088568,-17.423987184370255,-12.796944813787306,-11.404075398754113,-13.435925724959066,b
-15.929179783697771,-4.25081192482518,-5.404543614986336,-13.574515484975667,-17.712287438197453,-11.656002263015532,-11.768500580900879,-13.643866589957497,b
-15.837090134852858,-4.121328186646702,-5.518589820037585,-13.051284430741077,-17.868179226095503,-10.530266112550407,-11.926954509840536,-13.600877447044041,b
-15.731623156006824,-3.9924588959137934,-5.627032325899388,-14.422170855401898,-17.89192977978643,-9.334273290617784,-11.88647228701976,-13.313019476086495,b
-15.612585122192703,-3.864458260069045,-5.7292795864704775,-15.787222989756282,-17.89059217735036,-8.05715635735227,-11.825054510845268,-12.953083298028748,b
-15.479782308443518,-3.7375804865550477,-5.82474005564958,-17.20426683515847,-17.892239516273648,-6.723240139788823,-11.938420841500013,-12.728831466583252,b
-15.333020989792306,-3.6120797828143942,-5.912822187335429,-16.82825856167898,-15.917041348374923,-5.333448921737462,-12.26700421750972,-12.725812213752215,b
-15.17210744127209,-3.488210356289676,-5.992934435426752,-16.64292959076008,-13.974925181017436,-3.8426470814866507,-12.655371120825926,-12.856525114807415,b
-14.996847937915906,-3.366226414423484,-6.064485253822282,-16.494287536376397,-13.877568036818612,-3.879453438442094,-12.87802700187898,-12.952683591911264,b
-14.807048754756774,-3.2463821646584115,-6.126883096420746,-16.27149566425313,-13.547252890369126,-5.294748735366173,-12.82291897522837,-12.916478208882603,b
-14.602516166827735,-3.1289318144370486,-6.179536417120877,-15.991969977810658,-13.099069211960437,-6.472211488173843,-12.579583961268156,-12.803277504936181,b
-14.38305644916181,-3.0141295712019893,-6.221853669821402,-15.77715363053645,-12.705322168149435,-7.528396693731191,-12.360107367936529,-12.770335999653462,b
-14.148475876792034,-2.902229642395823,-6.253243308421055,-15.741525491671116,-12.46348395861958,-8.576418444715708,-12.316260169948517,-12.936297598946473,b
-13.898580724751435,-2.7934862354611436,-6.273113786818564,-15.885233043661165,-12.319922837289676,-9.650370481341046,-12.400965719886813,-13.266879452986831,b
-13.633177268073041,-2.6881535578405407,-6.280873558912658,-16.08256322081979,-14.149730808956187,-10.687599406718999,-12.390080593888216,-13.579399930204527,b
-13.352071781789885,-2.586485816976608,-6.27593107860207,-16.17974571598822,-15.899983492102873,-11.583470988296202,-12.051729233905442,-13.661782925210693,b
-13.055070540934997,-2.4887372203119353,-6.257694799785528,-16.117420613284942,-17.53248711416972,-12.280893155233116,-11.329063589497473,-13.411822067339347,b
-12.741979820541403,-4.2037588917782776,-6.225573176361763,-15.971626288538975,-19.090119545265104,-12.830716502446645,-10.393324180828241,-12.895063625024278,b
-12.412605895642134,-5.893934395317427,-6.178974662229505,-15.88440848601087,-18.800691875543475,-11.69012298771875,-9.532630061843166,-12.292001742151552,b
-12.066755041270218,-7.690054139982081,-6.117307711287483,-15.948992814199311,-18.791143480710705,-10.951986069469653,-8.968290106973182,-11.785543238042232,b
-11.704233532458693,-7.648266972313726,-6.03998077743443,-16.13896806068047,-18.992602147546624,-10.666958954059574,-8.732119771424852,-11.466387603516656,b
-11.324847644240577,-7.630265666033556,-5.946402314569074,-16.325244593207138,-19.241768975755377,-10.691998435485907,-8.67948538876272,-11.306299754816576,b
-10.928403651648908,-7.635085244535103,-5.835980776590146,-16.361966742016826,-19.377297102938833,-10.794276677683568,-8.613467345659666,-11.20248368125293,b
-10.083566453477022,-7.705180096622902,-5.562242290886492,-15.834532001758465,-19.12980216297014,-10.729423540430272,-8.155992273610199,-10.855686532909754,b
-9.634785797962863,-7.764378364161606,-5.397742250959228,-15.453232796367484,-18.901769749611148,-10.709282575499994,-7.941355737423753,-10.667055972776357,b
-9.168172138207265,-7.834243504386949,-5.214032951513311,-15.170599341214487,-18.748857063549742,-10.9192008047055,-7.897609655254539,-10.621029395904344,b
-9.168172138207265,-7.83424350438695,-5.214032951513311,-15.170599341214487,-18.748857063549742,-10.9192008047055,-7.897609655254539,-10.621029395904344,b
-8.683531749243263,-6.101066571368696,-5.010522846447474,-15.056712675045933,-18.718502597640125,-11.425068033892689,-8.029627557071915,-10.822057396790331,b
-8.180670906103883,-4.396776768599645,-4.786620389660445,-15.098639538189534,-18.78603047228389,-12.128013404654252,-8.224924281758152,-11.279884305605616,b
-7.659395883822155,-2.584067043894765,-4.541734035050956,-15.213891143973845,-18.863954330880965,-12.807139468774992,-8.322905738204689,-11.886039058061,b
-7.11951295743111,-2.5994424970133188,-4.275272236517734,-15.28212102111254,-18.821515568301184,-13.221166552415548,-8.20167783920614,-12.455361044176104,b
-6.560828401963773,-4.441728138521693,-3.986643447959512,-15.188480159861086,-18.520567379328106,-13.19839073259081,-7.821041597208388,-12.806428444830164,b
-5.98314849245318,-5.897715975317595,-5.550689723611819,-14.861351419667477,-17.858138180042094,-12.664013517903307,-7.1967986296498125,-12.82299486952947,b
-7.673413538371318,-6.858416307231147,-6.6819452428287365,-14.277143282883102,-16.785943233455402,-11.606012065164695,-6.336387774548198,-12.45535656141318,b
-8.712676827449927,-7.274835738826253,-7.329077241411045,-13.429231788513283,-15.297928549915037,-10.02690064558162,-5.200857345085696,-11.677726844582098,b
-9.102792317541887,-7.163286798190394,-7.516113604102452,-12.294633414600826,-13.41155856532193,-7.929231176438989,-3.735262013668721,-10.456908434711163,b
-8.872511331870173,-6.60141435639648,-7.322153711414787,-10.831565652343478,-11.163688972023838,-5.33930984797455,-1.9408278845399116,-8.767404598989307,b
-8.059906498087184,-5.697937303561497,-6.847025434631478,-9.005531470364565,-8.611756791364781,-2.335269103559958,0.08388682013974842,-6.63402488475612,b
-6.6961400123232035,-4.532106017763345,-6.164995521091069,-6.81664487266344,-5.8276346971406685,0.94934163413866,2.1782500152964004,-4.153133692462482,b
-4.793415354375307,-3.1105309891062034,-5.289696194843262,-4.307513434832726,-2.8925515862431816,4.343120189421974,4.203525626492951,-1.4648232061814364,b
-2.3519384893765176,-1.3907578106012544,-4.1781876415990045,-1.5507779940731665,0.09635765858458001,7.654063435756676,6.101608165254904,1.302150333163397,b
-1.707948971443208,2.5194638410587427,-2.7729062727707987,1.3695390825065599,3.017056527045414,10.676140257842569,7.876853913167177,4.05981282743262,b
-1.0793692509342452,4.438953592943113,0.8257509759403007,4.364618140036926,5.727586943946229,13.19866921471871,9.519451427022137,6.733677403704516,b
1.8140535306221852,5.904690544718219,4.302603430196408,7.331806260996238,8.09057763808128,15.043074730506731,10.94612918932398,9.20865687975224,b
4.046840371063018,6.862445347716,7.539069658432621,8.153239331281663,10.014549469917519,16.131355564786364,12.023943057764004,11.31635530095336,b
5.614468099451697,7.322596061664006,8.411189249131285,8.617940561022976,11.49978313406201,16.546122694747254,12.665808134036679,12.897095672418818,b
6.539466071327124,7.356154574147242,8.89633212273888,8.752722235614527,12.65488660936991,16.518970185374585,12.911839651952235,13.891252090679075,b
6.853840107762994,7.0645082766668335,9.090087484467118,8.604180264631292,13.648000386907402,16.326611328513867,12.916813784217576,14.376989531079332,b
6.582840759416252,6.518877533556852,9.062459593043982,8.22373499389648,14.608057856834822,16.157872317294853,12.850518905831729,14.517789825526517,b
5.732915021716009,5.717144306049679,8.822794361369787,7.640043670992668,15.553933952380799,16.053267637258784,12.798428154066956,14.464165160048381,b
4.298667536532682,4.607427143156741,8.32384184146726,6.835222052545186,16.417887177851874,15.962599917181006,12.746054170435466,14.289382286728962,b
4.610891695825414,3.156043410996824,7.503704488521841,5.752015431309618,17.140378490089255,15.863598851124095,12.650165967251613,14.001554866810812,b
4.8822189489012,3.3281813133692544,6.333855059805493,4.33898580764361,17.743822759247635,15.831410861526436,12.522323508788414,13.605708332940614,b
5.114394631780689,3.474389359280771,4.840218353806735,2.6033478588760515,18.31869576930448,15.99192542853612,12.444337965189032,13.151885671528884,b
5.309164080484522,3.5957222956783523,3.086229160148954,2.6237567489528204,16.976367729455525,16.39474790347007,12.503668548689404,12.727993919173645,b
5.468272631033342,3.69323486950898,3.216038074812393,2.6151100097184212,15.574152001016866,15.182930226127127,12.715469664065193,12.412881066221924,b
5.593465619447794,3.767981827719635,3.327513035042441,2.5831032190061967,14.09885779298457,15.571084672269984,13.010374245683698,12.239494660532428,b
5.68648838174852,3.8210179172572962,3.4210073615520296,2.5334319546494894,14.423801167897418,15.583639569505968,13.297916167304498,12.198228003630856,b
5.749086253956162,3.853397885068946,3.4968743750540896,2.471791794481642,14.447955769129987,15.157749570414257,13.536578917745913,12.264242323126249,b
5.783004572091366,3.8661764781015635,3.5554673962615526,2.4038783163359962,14.242695414048626,14.448062791698717,13.739831618019423,12.414077191848477,b
5.7899886721747755,3.8604084433021284,3.597139745887349,4.1767011643459995,13.971280144264782,13.720737467665751,13.922972190097065,12.621677543290028,b
5.771783890227033,3.837148527617623,3.6222447446444113,4.113120817324717,13.774956365092425,13.185668901166958,14.058106948654833,12.852956062168488,b
5.73013556226878,3.7974514779950264,3.6311357132456705,4.058905120885177,13.683194727576458,12.887356575978876,14.084693909053268,13.073101461982379,b
5.66678902432066,3.7423720413813193,3.6241659724040574,4.01726605581989,13.61393711854348,12.716673789444355,13.954778689270327,13.256049127744344,b
5.583489612403321,3.6729649647234828,3.601688842832503,3.9901738044009476,15.412382572142155,12.516455220364957,13.661133697343422,13.382398340930672,b
5.4819826625374,3.590284994968497,3.564057645243939,3.978356750380023,17.135609810935744,13.938165238737943,13.229670447679254,13.435574736579934,b
5.364013510743545,3.4953868790633416,3.511625700351297,3.9813014789883745,18.71353876137942,13.56024078943192,12.70119294608519,13.416451523295475,b
5.231327493042397,3.3893253639549976,3.4447463288675073,3.9972527769368447,18.260429566952187,13.27311797755037,12.128850275627096,13.370213148726435,b
5.0856699454546,3.2731551965904453,3.3637728515055016,4.023213632415854,17.97160517159739,13.229266779260993,11.585544517734235,13.387829352185927,b
4.762421604701634,3.0147078928806375,3.160956861998569,2.2456529098250066,18.045441320752055,13.83304904942923,10.894821795780725,13.88061078866923,b
4.588321483577751,2.8745402504293436,3.0398209912795036,2.271449348254084,18.138520686380186,14.10399039612652,10.795174660194899,14.25423414601688,b
4.4082311766497915,2.7284829435097633,4.88660714782006,2.284298076711715,18.015965858055615,14.07104579599908,10.774958515706352,14.505526783247387,b
4.4082311766497915,2.7284829435097633,4.886607147820059,2.2842980767117154,18.015965858055615,14.07104579599908,10.774958515706352,14.50552678324739,b
4.223896019938401,4.254325342690241,6.546303822662819,4.128571523258065,17.617548898743134,13.695360023655661,10.736290958708224,14.510482150371715,b
4.037061349464221,5.642305117427486,8.040763883362393,5.78368737576959,17.03943313511453,13.125519563694104,10.640942987188328,14.273899538266448,b
3.849472501247895,6.949822951357348,9.432661995123052,7.298879604577529,16.45484534740164,12.598757482104462,10.536103800882545,13.907517285244083,b
3.662874811310067,8.207562311630957,10.763021271480657,8.70756833921438,15.987744565455326,12.284290086577332,10.492288740052151,13.516748962321184,b
3.47901361567138,9.40894824113249,12.01988809015324,10.000337514888965,15.62910181142461,12.176973625173007,10.507358235970148,13.098108281953268,b
3.299634250352477,10.52783966936451,13.16009975941183,11.155255455130334,15.26027644289768,12.12065251300851,10.482860754328476,12.551287440432661,b
5.2917657618020995,11.558269180618685,14.166065780910941,12.189479581202866,14.771624434357104,11.946679864641611,10.317803299794821,11.805766278974858,b
7.216913013678147,12.554882442464667,15.089493098100192,13.175404061599945,14.178267198565113,11.618353204455584,10.036822649186414,10.942791371847777,b
9.223042461288681,13.626623279831373,16.03612672555896,14.19765594246284,13.623836082161375,11.260942933954833,9.811514474359933,10.18133201770323,b
11.402157854431698,14.865746632809874,15.112396513399398,15.283980426604213,13.261398644076797,11.051394051404378,9.824588960302114,9.717390341840751,b
11.326671721003375,14.592677046733744,14.4703897897952,14.52004364458752,13.11930889962564,11.063055776428621,10.087289662718273,9.551289488375746,b
11.26348624962149,14.51148416903735,13.989439738528798,13.80099520701132,13.073575682794589,11.199182875449225,10.385874848080583,9.464429834065626,b
13.288100476884432,14.423632639842177,13.481851941741088,12.979966895965475,12.946836335092808,11.27102596421236,10.426594007860306,9.18100506742331,b
14.956685302418274,14.206915070481688,12.84701533167295,12.02483890078041,12.645688742961696,11.154047938559689,10.067397692547868,8.584280307867289,b
16.299208943926278,13.871679819172149,12.148372094811187,11.052811730709779,12.227078488799341,10.894134608487693,9.440122149362109,7.805079519576874,b
17.468926755797394,13.533810970323305,11.559534154754576,10.237873347027106,11.847180891358482,10.679939048869802,8.855875695051475,7.109441033706119,b
16.484650019705793,13.318291425279947,11.220439844685725,9.66921099260313,11.633425991391835,10.70433219242371,8.56711554800491,6.682276543793134,b
15.690440346137342,13.24223185635314,11.1133957668546,9.277145695862382,11.577335817245963,11.020928796701636,8.577800208790814,6.486013359140581,b
14.909430790028134,13.177810729540852,11.063495353491879,8.886137714549964,11.534714703329724,11.501310868655343,8.653234867710605,6.305305288147978,b
13.927288375915364,12.950456537830613,10.869761537948161,8.349411665309471,11.33639017143471,11.921171988721314,8.518257059195127,5.935980589520916,b
15.049760935662153,12.48627178549999,10.456795305467693,7.655106015173432,10.918606256352097,12.109496522853467,8.07977237257703,5.363768582923074,b
15.957032957234073,11.866491571238306,9.920283809601168,6.9232823734557645,10.366794549651702,12.052413630936698,7.494589099059527,4.790860203667262,b
14.59997710794066,11.259183838262249,9.44165936229899,6.305957572963667,9.846238705738944,11.881119698957537,7.038027208176328,4.491326950597385,b
13.503877202986365,10.818573578854288,9.155828412413685,5.874906457454961,9.485270614302246,11.760206006210321,6.892912749329018,4.610270423835297,b
12.74035832003207,10.623217774559585,9.071411364523616,5.578713269353502,9.297615664308449,11.76133808041071,7.028305783555483,5.059294533074859,b
12.23480278489559,10.64998008277318,9.08318353366224,5.288085831388193,9.184256157150337,11.808335111971436,7.241671384825156,5.57627676002452,b
11.822217153533199,10.781674166971623,9.05400892504977,4.886225257482431,9.000185448371665,11.723051710824226,7.302012199732919,5.88883467668703,b
11.361468165262226,10.872111879093222,8.91001964128779,4.342070349033137,8.642149222183575,11.338282683107014,7.078332120761104,5.85831851533474,b
10.837566867091464,10.844158373773714,8.687846517134046,3.7274048085247293,8.10889299561286,10.61210204722616,6.587152598588931,5.522245842682423,b
10.369142044087091,10.73682963188643,8.503373072258693,3.176142280219571,7.501517335982667,9.67871988169073,5.965617490286072,5.038032268582976,b
10.114894566175977,10.658071900587442,8.466820044355924,2.811405302004062,6.96388369456114,8.795916762325623,5.403422404321204,4.581371685479205,b
10.156510440229567,10.691277376792941,8.603048425728991,2.6768251821444813,6.594759798352302,8.201841732842123,5.056907849125102,4.253782057299484,b
10.434658377084968,10.82459282512777,8.823630162512082,2.7070998576099905,6.379414327079379,7.962769760528746,4.969345433730841,4.0392460415297675,b
10.766938748766083,10.935531252873885,8.966643719727202,2.7602854379750936,6.186621601785463,7.925636458990833,5.039654340679041,3.832572054682335,b
10.950501511124447,10.851137309565699,8.895439707264806,2.7057580197191546,5.851745870926949,7.832346655613198,5.077948453466319,3.527250860859778,b
10.916165584799042,10.484822780267246,8.612237177460397,2.5220532760463494,5.31000518598087,7.529498371283741,4.936785471412054,3.108653666446263,b
10.825102027859526,9.96269685755819,8.301410822669308,2.334988818757307,4.685165976223123,7.117811373988059,4.642341082545391,2.689997490278744,b
10.985011485083842,9.593261833643151,8.23454189552901,2.350817574997018,4.24404268910363,6.9161626288794675,4.426120377847921,2.465457644610361,b
11.604342107706348,9.65005413214001,8.575541635758732,2.710940484249967,4.222941304836841,7.250684790609968,4.607275345267924,2.6032481833975583,b
12.58091054095319,10.140921435401575,9.230851213242563,3.3643832694991502,4.646616988981998,8.21527926445042,5.379347939447955,3.1326630103757327,b
13.517054608055926,10.775604038350346,9.87331251709995,4.0575079078637994,5.2819461853492715,9.57894375782372,6.644356420042678,3.890440454092855,b
13.954980053019739,11.155149444140932,10.129869913134376,4.460758101385967,5.768026807828518,10.910673999239348,6.432359141830444,4.573635975948504,b
12.686357608491326,10.357026951467246,8.92554794642048,3.7118568458926573,5.420765195200568,12.20687368900676,8.007972610092887,4.680054861800123,b
11.396053561086969,9.383417335156215,7.755735165264838,2.720234324378893,4.70675253444174,12.154269605626336,8.00872293085735,4.021197757215636,b
10.096925851964745,8.323923551798178,6.507462105685413,1.5808396431019038,3.89668502153834,11.86806491411726,7.731068057436181,3.0893722847574105,b
10.096925851964745,8.323923551798178,6.507462105685413,1.580839643101904,3.8966850215383397,11.868064914117262,7.731068057436181,3.0893722847574105,b
8.866301380303922,7.236200282467483,5.222944621387993,0.3837105657382242,3.063540232275734,11.424943870785846,7.326418086817389,2.033667381764098,b
3.513048620190697,3.1043402937221045,4.140969317262234,6.869851895830941,2.1195213413067995,-0.3803453442329019,0.5617842349503962,-0.1321570564906302,O
3.8137804949544525,2.7033357742179516,3.6244648747009824,6.58988975814264,1.4169514706465738,-0.5818051902672796,0.3162944417528477,-0.7555651146217155,O
3.7454766244702933,2.0212171286157585,2.858862575885887,6.085346744876659,0.5011507543996849,-0.9510551710174369,-0.1567877719914193,-1.4821886332863012,O
3.242765552043884,1.082115883915146,1.8083438831209606,5.356192217114758,-0.6202087180731648,-1.442194318516124,-0.743638935039679,-2.234595703988231,O
2.39687352279988,0.020463681076988573,0.5714893468717155,4.475408080469935,-1.7827314638272491,-1.8734503278474626,-1.1784486620490697,-2.8492435740305515,O
1.3761973050534908,-0.9997640083188213,-0.6792704060769406,3.5491848719675807,-2.7644793536301693,-2.0285143540865525,-1.2261695393063603,-3.1847484752911037,O
0.3286413963055138,-1.848018711040925,-1.7869765539512437,2.6689130907639464,-3.4116360496686164,-1.7870143526672333,-0.8403614174940817,-3.2089895821643255,O
-0.6906551095835706,-2.463665395444295,-2.682887147303756,1.8782453254844846,-3.706100846890249,-1.1913427807237587,-0.1724765759995312,-2.993391860636044,O
-1.734648112695989,-2.880438630607835,-3.4087565385343632,1.1681099749044872,-3.743511054021687,-0.40511047339688533,0.5624698614826632,-2.6298554567636785,O
-2.8908571011829047,-3.201480863932833,-4.0652257302237365,0.5069899699402877,-3.6452309362083914,0.4028659871012212,1.2435146116691536,-2.1519072252588165,O
-4.159141850277197,-3.5073673788270066,-4.71490339790047,-0.11113090935374208,-3.472066250439501,1.1575446659809348,1.8933916621071236,-1.5304913768851578,O
-5.402133614212135,-3.778906087082246,-5.323163955237741,-0.6446049468838893,-3.2099886178165966,1.8833239069176977,2.5895279684319923,-0.7389749407005005,O
-6.432868944808581,-3.9244818144996536,-5.791446645608451,-1.033609771676208,-2.8356526643990843,2.621944307780386,3.326819135139398,0.18302684911443068,O
-7.151195783250259,-3.8794448448319985,-6.045938439772268,-1.2558892907500767,-2.3937943315321015,3.3409772751972255,3.954873827028522,1.1264141890026107,O
-7.59454606198265,-3.67095852547043,-6.100434623739791,-1.3582790919643561,-2.013024614252008,3.9096341597014685,4.237815508749653,1.9615373168106742,O
-7.879889476600958,-3.409786454197041,-6.054567861605987,-1.4390648518156055,-1.852106108587261,4.156922353678295,3.9853566235101865,2.58567560549887,O
-8.113468417565521,-3.2470796907714132,-6.043185093702835,-1.5956299643602927,-2.0245743744858515,3.9682586682588847,3.1633866772549712,2.935232555106789,O
-8.327745257714623,-3.3146678029796623,-6.166013603604514,-1.8700076178688814,-2.547600083480047,3.3595974510955946,1.921870001706435,2.976782638635272,O
-8.459889064382464,-3.6455560696881997,-6.428710973613742,-2.224402819427842,-3.3331659678459453,2.488680663612599,0.5354466539687751,2.7085739403857985,O
-8.388254408657135,-4.125600647711179,-6.735951666436018,-2.5668402674429798,-4.223650923689958,1.5991512418796971,-0.7045377328297936,2.1778863155035255,O
-7.407253888439458,-4.757079051965302,-7.007398385188308,-2.9708364259551505,-5.754011891777585,0.5935531420150401,-2.0862478411254126,0.7445877291975396,O
-6.670174807203509,-4.726995933443854,-6.916832570386194,-3.104498805784788,-6.308919186794691,0.5776052045078556,-2.27446223118818,0.014781124128592404,O
-5.9730318424623725,-4.566790566892942,-6.78665864297636,-3.328534050814907,-6.80015028100177,0.7077383331222906,-2.339076351157079,-0.7445750009858644,O
-5.9730318424623725,-4.566790566892942,-6.78665864297636,-3.328534050814907,-6.80015028100177,0.7077383331222907,-2.339076351157079,-0.7445750009858644,O
-5.416973509585622,-4.440405840577471,-6.74027230894294,-3.7149722976387523,-7.31453690259398,0.7627937131889633,-2.4376377567021015,-1.6339055306970216,O
-5.035150492010742,-4.495633250127088,-6.864056906353599,-4.255074944699311,-7.895976260125332,0.5892567963672893,-2.6247239374878912,-2.7070412897335308,O
-4.804266545063589,-4.792263548919248,-7.166667277344004,-4.8615552990813224,-8.513254847687309,0.1855641050764835,-2.839269964396917,-3.8781731055192994,O
-4.650359648071884,-5.245476136464511,-7.567135404107148,-5.406941698733158,-9.0638085909067,-0.3034307415373686,-2.96240970113254,-4.924977886112818,O
-4.478764062205705,-5.652820270275061,-7.933695257943546,-5.7821332553200735,-9.421851420349213,-0.684070313133117,-2.9027226170905087,-5.598635084404586,O
-4.237739346123094,-5.8272340577993065,-8.16593544485375,-5.953257763208058,-9.516462190588904,-0.84839920529801,-2.660180943322843,-5.771746851561765,O
-3.9563544446023373,-5.735867083733676,-8.26325575300432,-5.984053876740434,-9.39217219146499,-0.860504733185939,-2.341960298431522,-5.526287263995137,O
-3.7087952202738173,-5.520458398168995,-8.32168829813049,-5.998774101646182,-9.200405604977341,-0.9267654215796799,-2.120660898703202,-5.116485081216888,O
-3.5413240935847634,-5.3890574115538765,-8.45905368238105,-6.098895645322669,-9.112094532009785,-1.2510949843371857,-2.1404635406306474,-4.816034993550046,O
-3.4281575507346296,-5.469861077982609,-8.722470282628025,-6.286597865351585,-9.200434645833013,-1.8669409458980084,-2.4106589704289236,-4.740380508298063,O
-3.276182544983185,-5.717726226882668,-9.041055819316583,-6.452134850075112,-9.375340471536076,-2.5791317014060793,-2.762225526303371,-4.770312313451717,O
-2.970683092255954,-5.929996061266398,-9.263515265536281,-6.446316672179132,-9.433233595334764,-3.084781287003839,-2.929002155221263,-4.648454259592006,O
-2.4601381149639048,-5.892196518560356,-9.274283990264275,-6.203108051012892,-9.213130441125985,-3.2034669041660395,-2.730771429801646,-4.194716243900565,O
-1.8406010071038257,-5.578057595434575,-9.11313683845936,-5.828096468205996,-8.75437964896857,-3.043132195444172,-2.237645095405799,-3.4831271327698468,O
-1.3453969993626362,-5.225502751364853,-8.986439074708558,-5.567306177819617,-8.315789957438046,-2.957864839305896,-1.7751467736225575,-2.83384240318932,O
-1.2014494486452658,-5.177106498173805,-9.129574730795976,-5.649218919279805,-8.208369289662402,-3.30922610447391,-1.7287172691767059,-2.6062983955344228,O
-1.4638749827869604,-5.608009845282621,-9.622975837442388,-6.109044345278944,-8.559419612406604,-4.204242087130028,-2.265849956877953,-2.936999802870627,O
-1.9889169121939598,-6.395824335205051,-10.324748679175448,-6.744925602070012,-9.204266252752376,-5.412492003036227,-3.1849594324609343,-3.623061351685486,O
-2.565684101723186,-7.23976200005347,-10.979620306555102,-7.25649961294719,-9.80121386432118,-6.527422695646592,-4.0261219561018775,-4.252876473346119,O
-3.0719914436238183,-7.8936405635498135,-11.405851046938233,-7.459349918412808,-10.07735913334861,-7.243464111230987,-4.377911128153057,-4.494127787747802,O
-3.5284347751720837,-8.315223922218232,-11.61075526096715,-7.406440679395928,-10.013622920892184,-7.535533321177249,-4.151913784447488,-4.319738690277649,O
-4.0433952204037364,-8.654826610449842,-11.764578274466118,-7.333055403054553,-9.8403653365283,-7.619964541936622,-3.619545402792128,-3.9997179961690437,O
-4.714690719056677,-9.12536324403814,-12.07144565554021,-7.4842817710333565,-9.865029356536066,-7.756540167655629,-3.1971316458148222,-3.8772416720683855,O
-5.553316890168391,-9.84333035175688,-12.634477458542952,-7.961037096550162,-10.26845824667192,-8.062549654448153,-3.1575759557331877,-4.117627234255903,O
-6.475826665029787,-10.745494882566106,-13.40408841680247,-8.686721056872917,-11.01322864540472,-8.470413323835272,-3.482586875808886,-4.623572943957884,O
-7.36906076902778,-11.64554185478667,-14.232264654487329,-9.493478422455189,-11.909245464871432,-8.825480713572242,-3.9370103705293973,-5.155389157989228,O
-8.159657777235898,-12.37391175405289,-14.971573911137991,-10.23888884489266,-12.758656896824444,-9.016631807755415,-4.273190109847881,-5.528152255239577,O
-8.810044077024283,-12.864036714633588,-15.534010741804593,-10.860002886287628,-13.459538430230264,-9.038198528933965,-4.398560681131377,-5.721886006132687,O
-9.260926989794951,-13.129859824419714,-15.888196388349737,-11.347639407216702,-14.014653376228718,-8.96617216680824,-4.401201408556487,-5.844523636553115,O
-9.42124191255507,-13.214331796597426,-16.040244929794934,-11.697882670528992,-14.482479081010316,-8.901032883375597,-4.451072542804495,-6.016794567428846,O
-9.23845497532228,-13.18173541774467,-16.028776874172326,-11.896150913356218,-14.927433429691055,-8.928227354250343,-4.674673138395108,-6.290565180928243,O
-8.755597589785957,-13.113596096003949,-15.90894861634241,-11.930559508214316,-15.384711644783996,-9.102010300743444,-5.08987677417824,-6.652470895258496,O
-8.066046632886696,-13.051189241411814,-15.702410403446871,-11.795173201873759,-15.830671834411419,-9.430823702855523,-5.61792880823098,-7.076158629324152,O
-7.207231994276368,-12.931400961867364,-15.348043430240534,-11.467327601797999,-16.168190211569133,-9.858090001605426,-6.1320921871291345,-7.551947941823997,O
-6.107518532351092,-12.604013088865365,-14.71084268429754,-10.887030406017841,-16.25148605734766,-10.262889192974152,-6.5017527062203655,-8.065129587726258,O
-4.639588652413029,-11.928857216032167,-13.659754027361217,-9.97725495542142,-15.95430213215128,-10.50748796602224,-6.628013250466767,-8.562670613288752,O
-2.741222936936353,-10.872892257229278,-12.16821991846283,-8.710862132990037,-15.250054111514833,-10.520105134533182,-6.484686251215233,-8.966533578696733,O
-0.5241673585922919,-9.549886817717674,-10.371814460801847,-7.180501285377358,-14.252931530356978,-10.353861206463536,-6.151674908197772,-9.236823616313654,O
1.7120134134374978,-8.187826565577293,-8.533170456302997,-5.605085928720284,-13.178724765524171,-10.161037526994964,-5.799179535442225,-9.421522818638048,O
3.6069646351302445,-7.020056553999846,-6.913999967541271,-4.242647384037086,-12.230816276371282,-10.085587894342728,-5.606108548851371,-9.631551582288271,O
4.944544745515462,-6.1411361219652845,-5.629568919706641,-3.256856960076746,-11.481306868295762,-10.152825198126964,-5.658273954006372,-9.950925386488496,O
5.773849089027424,-5.440402400762216,-4.596773500450356,-2.632228401740016,-10.83766114953608,-10.243157419229522,-5.898675406130901,-10.354248114789282,O
6.8866099097590405,-3.7389906465069886,-2.5344179822019086,-1.7436468089366728,-9.19427924933201,-9.770198828461389,-6.264016036264162,-10.792463921062183,O
7.526474757467957,-2.583687548978046,-1.3107158790618472,-1.1329891385749835,-8.036332226343786,-9.02736073395343,-6.093864753769564,-10.50911606476035,O
8.21726301945443,-1.3727924384471435,-0.04484281979151224,-0.3757038068021988,-6.746341215247012,-8.037141784682378,-5.662837195389849,-9.848321635534859,O
8.21726301945443,-1.3727924384471435,-0.04484281979151224,-0.3757038068021987,-6.746341215247012,-8.037141784682378,-5.662837195389849,-9.848321635534857,O
8.84858270396337,-0.29317320061384144,1.106237733862138,0.40018810887071093,-5.480899487197268,-6.976572107448165,-5.091463709555528,-8.927073322711298,O
9.33922114474951,0.518173742499323,2.0135372041133235,1.0426394968522448,-4.374494634509688,-6.0129037234153575,-4.537269154054465,-7.893633455810175,O
9.703612624881462,1.0395850196184573,2.6441439066125465,1.4831195815947358,-3.4750682816694463,-5.228448881171861,-4.103189367775102,-6.836145112803562,O
10.040508759572276,1.375493880656327,3.068029752658326,1.7783594937406395,-2.7325147690405673,-4.600727917101375,-3.7850753163729225,-5.755641764291757,O
10.433257914065756,1.6742852777410622,3.3892738171333328,2.0499701706582254,-2.0540843587268176,-4.047079221439846,-3.4912676864398846,-4.615562648503073,O
10.843776135008332,1.999234321780874,3.654865031727057,2.3710739009691744,-1.3860042383575828,-3.4962332618632734,-3.113684804454443,-3.4123507710635232,O
11.11556069453953,2.278761241600649,3.8242773206238767,2.6973002761448783,-0.7526198184220035,-2.93440322336331,-2.59811556073653,-2.202200573842807,O
11.091318065774223,2.3895904597251723,3.8219374540764335,2.898269075219763,-0.22522730107885622,-2.400928793472544,-1.9733320246708836,-1.0705821872485082,O
10.725624407949237,2.2778903745765873,3.6131450266603347,2.8582574207733304,0.1425444240936497,-1.9472295450485064,-1.331037136007301,-0.08424491423394258,O
10.097606001976313,2.002052629649893,3.239288420709781,2.5653824789658515,0.3588113171424043,-1.5920430809500412,-0.7731908828965628,0.7296722870938763,O
9.350188323333564,1.6928124128178481,2.804891847743734,2.129107885060904,0.4955848189080198,-1.301231395026738,-0.3545414143929042,1.3688436109610622,O
8.628263590815298,1.493174727080671,2.442442519709443,1.7232503320249593,0.6594918578387895,-1.001738468333366,-0.049938673248492674,1.832532595376835,O
8.038993853332713,1.5042292773401085,2.2723592742167,1.5006938428416017,0.9506656846157622,-0.6175663250668781,0.23443034411351366,2.121561234468749,O
7.630606267311917,1.7407716231017516,2.369932126212389,1.5390290023656363,1.4302064033311974,-0.10377677726980342,0.6087900244708829,2.263482947776941,O
7.402646533174871,2.131564360025767,2.7545666247882914,1.8440934182307203,2.110290355059562,0.5383021725316859,1.1311873064832532,2.32826283749757,O
7.339789671265828,2.581071117032851,3.3977302452418763,2.383711028295051,2.959316507243313,1.2633583413320448,1.757477542136695,2.3974727800324063,O
7.418219628927301,3.0312016906183716,4.2232484643229755,3.1012872263625013,3.9007048729360676,1.9921496656310818,2.3411676528091747,2.4966172893079355,O
7.568339565857369,3.4569186613113794,5.096449611393437,3.8975209699473035,4.806814733694497,2.6277907166517807,2.695210226963295,2.55185033256596,O
7.661486304275461,3.8267700324439486,5.841303186600686,4.622142677527597,5.520058188962428,3.0831285793601344,2.691744569403879,2.4253485510645834,O
7.576019092366865,4.1019830326769,6.306838787077364,5.1145441689627305,5.914234588970727,3.311899836084526,2.33966986193938,2.013519698981109,O
7.284794429036867,4.2654061337680576,6.43299421314772,5.273170899708367,5.952204077490341,3.3199885445165256,1.7798741320477458,1.3286704383550227,O
6.8633347999131,4.313553147484796,6.247914340844927,5.093946152112041,5.6817807972300844,3.1417026660482703,1.1911705019484065,0.4943937808243346,O
6.415350275121935,4.216331592805457,5.803278828463839,4.645914333387464,5.171159004397367,2.798956041761477,0.6713547353654367,-0.3410211917884213,O
6.002521968718471,3.9206165086529006,5.1229124534046795,4.010716809410235,4.448080268225617,2.2821822503513096,0.18431687878910696,-1.0995101266944702,O
5.631161552729479,3.4131325132717207,4.2138535101008925,3.2382204796584775,3.5002010783938156,1.5744234057653173,-0.3828623983394729,-1.7975436254814678,O
5.273975714446418,2.764419540969856,3.1144028874618828,2.348906495324966,2.333849899511681,0.7005263452751862,-1.0952404876741364,-2.4824280729240296,O
4.899724526722869,2.101099058568374,1.924270312359313,1.3731804731411248,1.0388129782691329,-0.24192707727240387,-1.8785381513727455,-3.1405384602048487,O
4.5048721334081785,1.543985798084684,0.7881569414489776,0.388165909467458,-0.19953040441429967,-1.1038468594521906,-2.5420477384131512,-3.663576909581123,O
4.122135017192533,1.1621258555062124,-0.16076435729917815,-0.48797075437797605,-1.1652515201389566,-1.752252253848709,-2.9055295473861587,-3.9069571000525145,O
3.7765270051290285,0.9469255083786067,-0.8644936405731818,-1.1498773513376839,-1.7190567708768274,-2.136250110332923,-2.927403659051395,-3.7909292275088973,O
3.4248291186497872,0.8129629896026639,-1.362274034456089,-1.5670676573761666,-1.8678797326181897,-2.2982491893510555,-2.7259995272096367,-3.360302421722799,O
2.960518532332255,0.6544483673530523,-1.7446638537985357,-1.8013153779194429,-1.739083179916943,-2.3228748486390858,-2.4798344766720826,-2.7605299134638472,O
2.29892717990315,0.43475946548718436,-2.0751998200112767,-1.96275768497566,-1.4826407627624971,-2.2704126311017627,-2.297105603521021,-2.1557995272594104,O
1.4588129340197664,0.2192673435987494,-2.350164700925462,-2.1372454462970696,-1.183087241993028,-2.1479299008019925,-2.159186500692841,-1.6468686245536812,O
0.5653294360766319,0.11015429196278245,-2.5238903132330295,-2.3347231407622577,-0.8400613120216942,-1.928913951443736,-1.9670037450181663,-1.234837770254239,O
-0.21202583131478284,0.15791207306134952,-2.5595689577745615,-2.489614783222388,-0.4114447842394373,-1.594463420677282,-1.637281940877335,-0.8488991580633964,O
-0.7353543451804674,0.33550311406499145,-2.4585783561200785,-2.5132072835413832,0.1213298183860263,-1.1675663537281644,-1.173896056268778,-0.4234854563923086,O
-0.9621233500409259,0.5634589138214634,-2.2640095381467757,-2.368369386210237,0.7027218778208267,-0.7251962758786679,-0.6728539217418364,0.0242847266658321,O
-0.9706670224026455,0.7346639281578665,-2.051041808596344,-2.115336210387512,1.1977380994147198,-0.37755501422200044,-0.26799886408143114,0.37733173167272066,O
-0.906734370093281,0.7474480059718829,-1.8987663777934731,-1.8855795560523139,1.4503522146972554,-0.21295045919082414,-0.05745292613462374,0.4836977485017636,O
-0.868915275922404,0.5704068635500062,-1.8440448514614842,-1.7930112404150904,1.3808071437476133,-0.23410369663712163,-0.05446407028861293,0.26055950838830466,O
-0.8404763672690756,0.28510735647209706,-1.854418986587549,-1.852109574766136,1.0484441052113465,-0.3335855665870298,-0.18552476995662714,-0.24018647701805257,O
-0.5749525783929545,-0.10054209821547704,-1.8085736446010745,-2.0639264877397006,0.2509429535064527,-0.11463334677752209,-0.39933505890911575,-1.404024688849977,O
-0.41870212414147945,-0.14754957288988635,-1.7362836348472346,-2.0945020832551333,-0.005951728008816226,0.36036845477119084,-0.3625672488219261,-1.7987801343436307,O
-0.4143898266970719,-0.22127453741821573,-1.7310512654338281,-2.1587658095413262,-0.23376291137833993,0.9751683671218053,-0.2788080408403802,-2.0720780638504506,O
-0.4143898266970719,-0.22127453741821573,-1.731051265433828,-2.1587658095413262,-0.23376291137834002,0.9751683671218053,-0.2788080408403802,-2.0720780638504506,O
-0.6408224210941194,-0.43294680342147573,-1.8879482881741123,-2.3877320704886653,-0.5657044560921033,1.5757459778195535,-0.22750912708227616,-2.3138211877813135,O
-1.0632777256383936,-0.8207663643938312,-2.237705425119207,-2.8376429811338477,-1.064387335785967,2.086339883462619,-0.23173721389683966,-2.555640999151166,O
-1.5397613265925578,-1.307701625117217,-2.7050076474906053,-3.4196030823719545,-1.6464715639539809,2.5713438151500725,-0.22158277615777583,-2.7068823241816373,O
-1.8899127333233623,-1.7225755523974384,-3.1368540268188396,-3.938726948691838,-2.1243305376985795,3.1736531080077848,-0.08226765459201602,-2.606644727914171,O
-2.0090324260071926,-1.9153000671013558,-3.4064245822359154,-4.226014301292071,-2.3500984213295237,3.9672294290441243,0.24045993412302263,-2.157670123800281,O
-1.9477583456334098,-1.8917515327539038,-3.5172904073937645,-4.262834880110131,-2.3466555386937227,4.847471428807709,0.6633290080456394,-1.4309800692708232,O
-1.8680948825245516,-1.820654229532296,-3.6039915574716064,-4.191045409975329,-2.3003047381010227,5.56539981292568,0.9935013333777866,-0.6489903664173273,O
-1.9033340602865614,-1.8812599141240898,-3.815532825635998,-4.196169866485925,-2.411003603378343,5.890717992054363,1.0549058798026256,-0.05614150542802125,O
-2.061223531149992,-2.1048778657114964,-4.1886985726097405,-4.364953995368964,-2.7347769204278563,5.7708213688317205,0.81389449195061,0.2190980384525199,O
-2.2547549922939565,-2.365966674779483,-4.625220519697331,-4.637877961909013,-3.158937336232265,5.351597593688366,0.39337665502849395,0.20234827246758957,O
-2.397819446016684,-2.5061304295901015,-4.979939416279623,-4.885379834593401,-3.5206888527071905,4.8457281648842105,-0.04239143847217745,-0.007914653698857178,O
-2.4625495393435832,-2.4623819131809794,-5.174582025118537,-5.029979492593529,-3.754363857591786,4.3649064614761395,-0.43205750772254203,-0.35718986808195097,O
-2.4774151774111224,-2.3144003891964298,-5.250504248771522,-5.110244678237196,-3.9433202698487166,3.858182037066314,-0.8581526910666479,-0.8778628175146433,O
-2.499062041659767,-2.239012366513255,-5.328301273004752,-5.242100588333591,-4.24213041158157,3.201866546642062,-1.4418684413066818,-1.6227014836094373,O
-2.570979774797956,-2.3910103342421207,-5.503603189685829,-5.5178526158079695,-4.738345495662543,2.353854556933748,-2.1841961134263705,-2.559371542413509,O
-2.6815396397824167,-2.777710626096165,-5.758420797486381,-5.930158217066977,-5.369779334829557,1.4311781206163903,-2.9046288277110093,-3.535048805459636,O
-2.765645360974063,-3.2411854346975106,-5.969169269660289,-6.3845568941915145,-5.968956766160455,0.641536510789164,-3.3481076358971755,-4.353815566984663,O
-2.7657031805879884,-3.587908003013234,-6.0138316851909845,-6.786379276227858,-6.396426161415685,0.13283355446963344,-3.3768097287615957,-4.901973718652392,O
-2.6885958812856368,-3.7454692143431947,-5.8824541770169905,-7.121993850013115,-6.643952269055509,-0.10462844815151451,-3.079873480119084,-5.211438164353583,O
-2.594400285071809,-3.791370876942863,-5.690731637659271,-7.4640213467642225,-6.822004994576686,-0.20511384437403665,-2.7048798953056106,-5.409283126784315,O
-2.545465329513818,-3.852098598969287,-5.595882532359202,-7.905061602069952,-7.060292891603373,-0.3079302957629423,-2.4738810099072106,-5.60422597263295,O
-2.586367899953009,-4.003077876035473,-5.698706335048689,-8.485201003424038,-7.420577965686926,-0.46367364832408153,-2.4425382046166506,-5.812473195271751,O
-2.7554014941034124,-4.249736284492335,-6.0001774363656635,-9.167328905304178,-7.881962133326288,-0.6358222354118361,-2.5089950850489857,-5.980071535975809,O
-3.0734125662144867,-4.55291743549048,-6.414655548508018,-9.858450196757342,-8.375678523355129,-0.7691783937623277,-2.5391729220406356,-6.061392097666259,O
-3.5064414106755835,-4.849104396618641,-6.810543977611158,-10.442524228893983,-8.816415118508443,-0.8421911552287453,-2.4814250291333275,-6.060781213201155,O
-3.95862177206718,-5.07025773093315,-7.057947638972969,-10.804486584942541,-9.112156545782657,-0.8556470901404729,-2.374629196932124,-5.993102221985304,O
-4.318763217361184,-5.170720346424913,-7.071074227345301,-10.852040493931892,-9.174849936282946,-0.7914945632478411,-2.268510935991042,-5.818426555488673,O
-4.520139706452775,-5.141190503936125,-6.834391254574544,-10.544801645419595,-8.954334346699683,-0.6123067034992259,-2.157103020917749,-5.443268715619154,O
-4.573001614911213,-5.007927845337648,-6.406932315862187,-9.919557440958608,-8.48229082573754,-0.3195428774414274,-1.9966303792481443,-4.806758978422887,O
-4.560251931103224,-4.836480415974981,-5.8995972237478735,-9.083891359376635,-7.8795059633449736,-0.0052311830216859815,-1.7764194942398093,-3.9663675329053367,O
-4.5888090433278865,-4.721684247230522,-5.4191896763025955,-8.164550105807933,-7.292754641359335,0.1798069304260779,-1.5521487412980775,-3.0854999134483334,O
-4.704351814661332,-4.724873185649526,-4.998864958387142,-7.238587529076925,-6.793778234401574,0.1334420025242855,-1.3984363584469335,-2.3217106113675725,O
-4.83693230288508,-4.794703692954535,-4.574336805514442,-6.304340298546128,-6.329613624366994,-0.11093052673303767,-1.3321183631603823,-1.7145814667787627,O
-4.854176483661694,-4.775916040042193,-4.049357989218146,-5.323980132796086,-5.783181219063862,-0.4059242461515602,-1.2909783728625526,-1.1738466701598866,O
-4.689860566192652,-4.531619857803095,-3.40711769439067,-4.302651273864674,-5.098489032061191,-0.6084411114366276,-1.1946120224839027,-0.5773864532108117,O
-4.413559967999267,-4.062995343024946,-2.7625978550473773,-3.329366786343937,-4.356351508170375,-0.6933853628593089,-1.0323027615644886,0.10445532612846567,O
-4.16536047394211,-3.506943442074225,-2.3001483799986744,-2.5391579130412874,-3.732304378303003,-0.7651185711513512,-0.8972742504161688,0.760400218923911,O
-4.030141313799096,-3.029565728173682,-2.1483704700520834,-2.0297556026126538,-3.3774111348541567,-0.9585215804016787,-0.9338912701314547,1.2048128924936998,O
-3.9738269894720304,-2.721105786440738,-2.292176664806161,-1.8030642360828029,-3.3222753428279845,-1.3166727752981928,-1.2379041790636518,1.3065760769136523,O
-3.87618838863442,-2.5558351006560267,-2.5787275524708217,-1.7719865900725789,-3.4707608076813314,-1.7499473509488197,-1.7869038170125087,1.0795097305509873,O
-3.610542139752353,-2.416754022938523,-2.803737829380112,-1.8157743956131802,-3.6722053356729125,-2.1048747949576505,-2.449320508770325,0.6701229211776619,O
-3.1142100352476776,-2.1699945495043687,-2.8199965501433186,-1.8363384326934136,-3.8082874801586817,-2.271151934755633,-3.05586361752204,0.26477896693589925,O
-1.578701582738306,-1.203796462746039,-2.216320111920519,-1.6450269497726786,-3.764431970140719,-2.020125496958748,-3.6802062917469867,-0.13222353893664565,O
-0.6647152234356469,-0.6059248250136369,-1.7667595166660022,-1.4481293392221588,-3.633092342092491,-1.6769412852310381,-3.713006628064849,-0.18804548961332007,O
0.3212757982209908,-0.005841044658938399,-1.3136917115265185,-1.2416618636554975,-3.47764158041537,-1.2151394675098375,-3.686934891125035,-0.30944681643872707,O
0.3212757982209908,-0.005841044658938421,-1.3136917115265185,-1.2416618636554975,-3.47764158041537,-1.2151394675098375,-3.686934891125035,-0.3094468164387269,O
1.3663246295680964,0.6002698363357839,-0.8719563569222913,-1.0790898984173767,-3.331587768749361,-0.6475163613519259,-3.695677057605379,-0.5942785457704186,O
2.410932702475502,1.229827035168152,-0.4212865088068397,-0.9671805954954392,-3.20297944303089,0.0033162724419632415,-3.740638211433996,-1.020731985325425,O
3.3852853810976162,1.8983059335297923,0.08686887665513429,-0.8205463773812902,-3.0378523548666077,0.7253038883273932,-3.701958697175411,-1.4220611390486266,O
4.2745453480006645,2.631018877974446,0.7137126896429675,-0.4796417067853538,-2.7148056365030726,1.5429923755452566,-3.390309573781343,-1.556535681775996,O
5.110381703048145,3.445156819423679,1.4872098655501893,0.19165058832022425,-2.1016498560564383,2.5118968723559694,-2.650531808536878,-1.237502165381712,O
5.888030191239592,4.303462283236862,2.3561736683327483,1.1950307315593076,-1.136749062764552,3.679379817797527,-1.440967930190336,-0.433885854328594,O
6.5157901375345775,5.113620548744471,3.2013646818519836,2.3726925973304014,0.13826877664911041,5.047287388519504,0.16922118007697612,0.7318036763065402,O
6.862864543544364,5.795077159171381,3.9084053594351653,3.504069176248364,1.6220982322448538,6.5702079128733315,2.0719992101804574,2.0853773210426487,O
6.85327755491399,6.335595528521247,4.439616891230931,4.453461363470668,3.226449188865101,8.184773413726164,2.61373574010477,3.5241644842545874,O
6.518634705691443,6.773940877851994,4.843859045152806,5.248068341886304,4.909105208066455,9.82971851231593,2.9922827375087175,5.063186579225521,O
5.980766350333991,7.143700708986296,5.204406903598759,6.022611159921015,6.645348630565837,9.559881316867495,3.2907913701107825,6.76570136639496,O
5.386697921931885,7.443601911925574,5.572478999451453,6.880661558911328,8.376066600940726,9.166369324758076,3.5735789016286774,8.620689388903315,O
4.833770952436103,7.644695841353593,5.934949805653017,7.792563362619849,9.988624439516148,10.257315594791017,3.825510998615806,10.481715957606623,O
4.334317495948444,7.7145551369895795,6.235939401482699,8.613581618427123,11.352038797327014,10.892958532318456,5.159380501762594,12.124907430096107,O
3.8533869980015645,7.652683828240126,6.431890557831663,9.197482200839078,12.374900775200285,11.067885587795079,5.841804156557887,13.371010685286084,O
3.38011962493439,7.515232840016688,6.527875581995009,9.498989569276585,13.031282728643959,10.889235908248788,5.939435213025119,14.163284575007586,O
2.944734468337886,7.3809407519956896,6.556023730983012,9.576743632154223,13.331858239700418,10.48392398586064,5.579225383473434,14.545467040676428,O
2.5620097218687037,7.266633539808511,6.520897022702123,9.506022018820106,13.276850885237693,9.897381463832243,4.846390980088644,14.575823950154952,O
2.188903259703764,7.091301778048202,6.3818698508881395,9.29269279280012,12.84928757349484,9.077392690036636,5.322943417808228,14.256579072436645,O
1.7655880605430365,6.754107458364342,6.100732247656206,8.869813302240907,12.060430867417674,7.958363035678888,5.739017309604333,13.532959704059326,O
1.284607548751688,6.245453172310457,5.698191889345593,8.173006263059271,10.99514770371791,8.437342216446714,5.962978503544958,12.358651464621762,O
0.7908282890551246,5.659829361527168,5.248447217585026,7.218911458387157,9.801040714358129,8.75749611561701,5.908367436699327,10.774652896731547,O
0.31634361826013147,5.104217637007565,4.81730057966629,6.117349456375648,8.6257272305486,7.369687288590507,5.600600726526624,8.935853400201879,O
-0.15914418652806392,4.614012019977994,4.413803441321784,5.013137916247734,7.557180668414157,6.2509620482170245,3.9778447270500488,7.058030716388453,O
-0.6779832620296417,4.148341116036967,4.00185371522789,4.010448358104414,6.609432974662826,5.41825040112824,2.845598334118624,5.321414713112719,O
-1.2478678568307575,3.6362124351360285,3.5522027431580887,3.1381505198087547,5.749243286877492,4.758050480594897,2.1691312990458975,3.79892004897435,O
-1.8136582055521693,3.027535807420145,3.085545519145239,2.3753317217343346,4.933659321677647,4.105204414447663,1.7471097385343093,2.451156464254828,O
-2.2749970172944733,2.3316349048862257,2.671972151237176,1.7063933639917845,4.134061920805838,3.324889116656659,1.3096662121160576,1.1798795025546123,O
-2.5467762831437524,1.6166717063619274,2.3819415678140095,1.152627312373333,3.3387369392137467,2.3548819673595203,0.6488305524162948,-0.09742854592966754,O
-2.6345244989117935,0.9489130833534277,2.2215615993940165,0.7522900190998669,2.5438120310685153,1.2112193538239608,-0.27973737681218874,-1.389557367129958,O
-2.655797044538934,0.3252143010572497,2.1126836832312526,0.5131251496368832,1.7541124342485834,-0.02054092696696532,-1.3365455734370881,-2.617062574414578,O
-2.7618205959844704,-0.31140901002559696,1.9500531647097172,0.3876947371100502,1.002087469791697,-1.2024585435744861,-2.2751656898375865,-3.650321148630411,O
-3.0212344142637124,-0.9800031099068998,1.6892013095571623,0.29580499542367017,0.36029391644979286,-2.1798630929455505,-2.8767710295284057,-4.380441653052342,O
-3.3831072485791536,-1.6069353982971866,1.3805760531370646,0.17253815589647195,-0.08307719480209755,-2.834116178059827,-3.0652363423883666,-4.778599887728386,O
-3.7453077855675923,-2.072961547303976,1.123282317000114,0.0035650402516510414,-0.2750105921592751,-3.1264828290107403,-2.9343612948124167,-4.9038546766374065,O
-4.0384720539692065,-2.2974178380730668,0.9929991830936743,-0.1733405724254519,-0.2270305217093064,-3.102623264336325,-2.670543522989775,-4.8549649622223185,O
-4.2506870793599365,-2.2752962422643703,1.0049064112083788,-0.2984692554546701,0.004032906696432259,-2.8518235463349315,-2.419638070305963,-4.700874921508183,O
-4.410416645200293,-2.067694371099899,1.1199553051315192,-0.3341948113071913,0.35940499219123045,-2.4469373561005368,-2.1864662994011357,-4.438352219381464,O
-4.564968640988608,-1.776838148744747,1.274369466468794,-0.29342029204885234,0.8054450447611796,-1.9049209814792463,-1.8380216291080758,-4.005579445999976,O
-4.747314663962799,-1.497620862310511,1.4201139845355368,-0.22633250137497965,1.3317540651268285,-1.195755064721555,-1.2105773954818768,-3.341330703950068,O
-4.931973242165407,-1.2527613169169918,1.5595301009449851,-0.1714255950243419,1.9316225870327588,-0.2966623552135653,-0.24623861960834192,-2.4472813908782376,O
-5.02990775998458,-0.9815744924920079,1.743250089001038,-0.11416070212838621,2.577629246218754,0.7450168337382326,0.9363110591560936,-1.4092080120298576,O
-4.664996678164254,-0.19533780305068668,2.411839123053197,0.24647337251112394,3.7357657385357244,2.6544707916576797,2.9453671419869183,0.5656889781631949,O
-4.233029457585995,0.18232424208003778,2.8578720052724984,0.609713438943424,4.097121196757891,3.194474846370521,3.3858177527713536,1.311835735685406,O
-3.7552744909432563,0.39375176012288615,3.2835915489527645,1.0321493768688073,4.274516733878693,3.3765341736949495,3.447395300390544,1.870314930490742,O
-3.7552744909432563,0.3937517601228862,3.2835915489527645,1.0321493768688073,4.274516733878693,3.3765341736949495,3.447395300390544,1.870314930490742,O
-3.3447557688043807,0.3760320265580285,3.602439549556169,1.4143114218502113,4.2965463060842515,3.2738878600331693,3.2812419263864414,2.26694387829118,O
-3.0910303267802917,0.13210304329193762,3.744625469118522,1.6773527341575938,4.209166953851676,3.000918175315324,3.037884112746861,2.5275608780234364,O
-3.015935215860002,-0.27468012583283885,3.6874752040025194,1.8115661574151052,4.057397716586075,2.637577333703511,2.7926642677752413,2.673928474632127,O
-3.057791489801768,-0.7351036718576014,3.470764792624872,1.8817153360729038,3.884264820404178,2.201768512145218,2.5528560897338854,2.741363599345933,O
-3.1204857076189265,-1.1411399716567545,3.173257674109562,1.9810441872157747,3.7320715908402144,1.6873873580731662,2.318981645437996,2.7921123855601673,O
-3.139423924428089,-1.4330456467518418,2.8736716217367264,2.1717012414605863,3.642611973927719,1.1330186812147474,2.135337099976718,2.9046530613523958,O
-3.0875871993035813,-1.5856195141723683,2.638178384688419,2.461543789385299,3.662066072518485,0.6570129959060875,2.085459427435806,3.141220977685041,O
-2.9365458939677707,-1.5598491776793122,2.526929854475512,2.8244202785549617,3.838317914103841,0.41610940623577514,2.240554302563445,3.514495183499018,O
-2.6537916151751064,-1.3106506297221834,2.5776134273941604,3.227409963329207,4.19492181255364,0.511548351842254,2.6105344730371014,3.9802726013412935,O
-2.2475569527051755,-0.853207948569733,2.7697177430695876,3.638243965315649,4.70198071068289,0.9228400123575288,3.145486793245675,4.469537599990051,O
-1.7843996387273986,-0.28386420864644457,3.023220987402497,4.023102866481768,5.284928464637055,1.5316132124130981,3.7868953166235206,4.940358589149875,O
-1.3461352586517823,0.29096492329629675,3.2508915686043323,4.352460101105839,5.8728756169580585,2.215681596685046,4.515951826889292,5.404391003451441,O
-0.9815965822715496,0.832283042337189,3.416294256108921,4.612614798534814,6.4406935453693235,2.9316108557763703,5.348501774378314,5.900839485481258,O
-0.6982145926771345,1.3684841533712775,3.549181496367983,4.8125016995655905,7.01025978056809,3.723096223297502,6.284375316118868,6.442933084002631,O
-0.47196773148852883,1.9441320503984003,3.71815752782856,4.981325956190693,7.619604217178564,4.6597959591091405,7.266983268161809,6.989528559971215,O
-0.25998414095094174,2.576215922031728,3.9782491552947468,5.150357028728118,8.280625102484658,5.75691125658554,8.193518492420687,7.464299402489286,O
-0.0427230336073704,3.2198487754469887,4.307079147077873,5.31468785358717,8.936760724639196,6.927256460479117,8.961610920591472,7.796154560206032,O
0.1145844527880763,3.744913380796423,4.569686316094778,5.3998671389799675,9.445721450921976,7.995549631646696,9.508714997655725,7.943395737369833,O
0.06055492357011083,3.9774331458673964,4.568854593840387,5.280229309823852,9.623900902302767,8.772185608772894,9.818058351574606,7.89186342700656,O
-0.34611967732371096,3.81851458527298,4.172429112762806,4.858767276095351,9.344841180574155,9.146069393055086,9.898458588572835,7.643002586809763,O
-1.1252410457684365,3.336159910759181,3.4148515554707983,4.14823296275332,8.618105800956117,9.137044055307445,9.761286133463827,7.208395454589635,O
-2.154253688175765,2.7219679067238927,2.476855751755112,3.276438575029071,7.577764706618984,8.87146436369332,9.411627694076124,6.613010380804363,O
-3.240914067276215,2.1509030857981597,1.561693818282939,2.4046706199896666,6.390264992691295,8.496593252941388,8.855178368931364,5.897935676602168,O
-4.2153546158648005,1.6787599133806754,0.7749702666146427,1.627043970906899,5.159919715766544,8.091523009719102,8.111334789253647,5.114696924225921,O
-4.992315993972912,1.2433102674675083,0.09239586208899934,0.9312197354631785,3.9010477735292577,7.6347036171745915,7.222544218091604,4.315105231056516,O
-5.592911265377348,0.7300873599526524,-0.5816989602759856,0.24390850448092455,2.5843517997435663,7.047393271487498,6.254343829022458,3.546333223200348,O
-6.111026529891726,0.05130009068344439,-1.3191469188739593,-0.48406636192368435,1.2104191374530306,6.274096276559671,5.281766903110426,2.849345478005392,O
-6.626096540938805,-0.7892908830300106,-2.1024996137535625,-1.2237449043809667,-0.15186507209591954,5.333333416897944,4.361980394102191,2.2479010014711642,O
-7.123439845745089,-1.6844185792228163,-2.832478670053315,-1.883737000111859,-1.3929877418687888,4.304496549408461,3.508998006961896,1.729528493289137,O
-7.493713404652043,-2.4903024032482,-3.3969493377274502,-2.3747289306484336,-2.4291648125681062,3.276808499535298,2.697574519488618,1.2435543215601694,O
-7.606149862583729,-3.1200343079440644,-3.739950032869752,-2.6658776645346487,-3.2454923570442893,2.309986163020668,1.90234945180209,0.73309052384565,O
-7.387286181250718,-3.572995580559136,-3.8780106596620634,-2.793275771957574,-3.881736376115439,1.4273963009241697,1.1381007623446084,0.17829287228828372,O
-6.861506852136901,-3.8896385937250244,-3.8702027209808962,-2.8278274902787937,-4.3858542271400225,0.6285295234184582,0.459192516127115,-0.39142751677615645,O
-6.1532308345810405,-4.10607613491933,-3.7837253513668143,-2.837676052260303,-4.78322989739219,-0.09560084395584219,-0.08272749621367315,-0.9297301308903692,O
-5.444640586982514,-4.24948433457785,-3.6740504564152636,-2.8688421524550676,-5.079067848522889,-0.7496218692995577,-0.48231646972521014,-1.4205002558494535,O
-4.883080237176353,-4.337153001924625,-3.5689211719680656,-2.9414043219059716,-5.274586802627555,-1.326816767123122,-0.7873978066955317,-1.8969223031300486,O
-4.490133070789833,-4.354804405983081,-3.4552784740079105,-3.0487807062087042,-5.373897335776039,-1.810335334632668,-1.0637818685717018,-2.4112728367730236,O
-4.158284132929995,-4.253953376710673,-3.287970068640786,-3.1582373099006533,-5.377615478017454,-2.1782525310222836,-1.3426162855624248,-2.972944223356369,O
-3.74802623804874,-3.994073685196485,-3.02467393594819,-3.2219992138866376,-5.274795522455567,-2.409333712687372,-1.5911633585733582,-3.50702190354277,O
-3.19778071328289,-3.5848855365576453,-2.661648528082644,-3.2034818315647073,-5.047498435764817,-2.4957515715990897,-1.7403461733411387,-3.88382272785679,O
-2.5607823889335677,-3.084272849572354,-2.2441665779596205,-3.1054167790773826,-4.692616095904825,-2.4630803906901426,-1.7562565112667319,-4.01139345815124,O
-1.5352463669733085,-2.138814080809372,-1.5472172590616438,-2.8729740376926327,-3.7794861884982227,-2.3132807301289007,-1.6434236940901321,-3.716459050255166,O
-1.3166776272136613,-1.8512851805349846,-1.3661355886546294,-2.823386338798787,-3.3657921248374962,-2.3160846867508154,-1.689787150558401,-3.5543662710677486,O
-1.2363857596664116,-1.7207726229538287,-1.2690513584243692,-2.789009738499798,-3.032958355070253,-2.3726035227971933,-1.8092043529335355,-3.4765441667866335,O
-1.2363857596664116,-1.7207726229538292,-1.2690513584243692,-2.7890097384997983,-3.032958355070253,-2.3726035227971938,-1.8092043529335355,-3.4765441667866326,O
-1.1594885714038514,-1.6886964588518025,-1.1884534876678787,-2.70128964708474,-2.7592346943405888,-2.43894843255011,-1.918749220760629,-3.4361322968053387,O
-1.0095904261772548,-1.6856102540920923,-1.0899623239055019,-2.527137931376088,-2.508925512887117,-2.4796186297546243,-1.9484985460803046,-3.3557648349860743,O
-0.8378085030773785,-1.6932088144532291,-1.0034786029737528,-2.311313194203626,-2.2691443732615295,-2.482168296652764,-1.8934242209101282,-3.2048798315740266,O
-0.7593762261118304,-1.7296829585879028,-0.9815293519403043,-2.1487465570984,-2.0486343526550277,-2.439679862902278,-1.8005396622096144,-3.024475454750521,O
-0.8237801982623274,-1.786578997757681,-1.0272486307359805,-2.1055869713998128,-1.8471676617804935,-2.3296268448882262,-1.712225399042414,-2.885368640718297,O
-0.9521347622930543,-1.8113636749995727,-1.068971062666599,-2.157000012819726,-1.6340917372811397,-2.1159289791608558,-1.6169391534220245,-2.8193651762787963,O
-0.9877754200737086,-1.7526370496083323,-1.004010104376713,-2.195880005997232,-1.358435961583651,-1.7738296835735305,-1.448759317875755,-2.783520829823094,O
-0.8012385050784896,-1.600866907862594,-0.769131003880735,-2.1090958943137923,-0.9834063734931,-1.3185271302107193,-1.142346638338586,-2.6920539718606857,O
-0.3822584368020967,-1.3926914154103904,-0.38936091097674386,-1.8687567359610984,-0.5255415227825305,-0.8193516711208859,-0.7065560463168623,-2.493874899852938,O
0.1228051226635388,-1.206399097004001,0.018966696577019347,-1.5730412143103982,-0.07274346579435678,-0.3885699318075274,-0.25358420300987106,-2.228816593827725,O
0.470565706268237,-1.146081390771815,0.3019748857133654,-1.3969280959995358,0.24767797936190156,-0.1408500202749602,0.0582056326132165,-2.0047900953435565,O
0.4768602155198359,-1.279270304300827,0.3626961312990392,-1.4739881146903433,0.35039426811966223,-0.1350206756022389,0.1402783845799127,-1.9035575258987638,O
0.1584096801978724,-1.5633829667403656,0.22888005737206366,-1.7952802330628341,0.26406050261487335,-0.33212727348780063,0.056906021488618466,-1.893411772140049,O
-0.2819598855722428,-1.859493568651893,0.024770430217400653,-2.214482228241929,0.11976052859174391,-0.6065668566066413,-0.006900696367274639,-1.8346205986379787,O
-0.6223335518457035,-2.04359695236439,-0.13307057427578733,-2.561334823497594,0.05374888749436426,-0.8127036248320427,0.11819296996281976,-1.5881571292716188,O
-0.7761042589811137,-2.0934343642399265,-0.2115742885231091,-2.7633544060859445,0.11090165437763957,-0.8632911038433668,0.45305745937524344,-1.1403847766693687,O
-0.8013194309346151,-2.0597236518574267,-0.24062579228865816,-2.8691701464938637,0.23477970055856678,-0.7640332284560352,0.8550646485208638,-0.6301088136667692,O
-0.7999642537725791,-1.9809318964150442,-0.2404234858165764,-2.9652968692691024,0.3431520799755671,-0.5833318042809548,1.1371073411831047,-0.2447214160243157,O
-0.8234176152882604,-1.847246322948676,-0.18465254495132558,-3.0749148436578357,0.4150260946869754,-0.3852625406694372,1.2227968082248253,-0.07044705316457471,O
-0.8423445723705895,-1.624709964012893,-0.026248107965580005,-3.1297441324161097,0.5192008723389566,-0.1780759677539436,1.210348645227021,-0.027147746868726962,O
-0.7742663869341958,-1.289139459634305,0.2536921303593679,-3.03126509704873,0.7659109565729771,0.08329853668223985,1.2930937624794565,0.053297462617734895,O
-0.5503056274072676,-0.8563599417177082,0.6161351571103565,-2.743921134695962,1.2149689054496235,0.44279305743414277,1.5988872083162273,0.27017677164544296,O
-0.18308646095198572,-0.411444182442259,0.969983949758866,-2.3421995386899988,1.8069304189558129,0.8797661099775957,2.074800790773766,0.5515450914301526,O
0.2257407440295252,-0.09835178660230515,1.2120089412244792,-1.9715554283737355,2.376842225081479,1.289401126890995,2.5087936841743694,0.6937689878682529,O
0.5498192607901349,-0.04749898496317258,1.2755136179461872,-1.7549396689792747,2.747094674727527,1.5264417685846745,2.6715954102295627,0.5124314324484851,O
0.7005499701014313,-0.3057234815032521,1.1442757893433382,-1.7262582019752308,2.823632992429144,1.482300939208032,2.4671123024328034,-0.017294875719414016,O
0.6281486159224464,-0.8418588876853328,0.8202429220816698,-1.8460733385092734,2.6192094139485134,1.14234776061073,1.9784595590056617,-0.7425685414087795,O
