Fz,C3,Cz,C4,Pz,Po7,Oz,Po8,Inst
2.7256309047098,-1.561680217377813,1.5966702111548767,3.1677988417618126,0.10548088276932469,-3.0493611885130965,0.09509927888761453,-3.3575223352083414,g
2.7256309047098,-1.5616802173778126,1.5966702111548767,3.1677988417618126,0.1054808827693245,-3.0493611885130965,0.09509927888761453,-3.3575223352083414,g
2.7256309047098,-1.5616802173778126,1.5966702111548767,3.1677988417618126,0.1054808827693245,-3.0493611885130965,0.09509927888761453,-3.3575223352083414,g
2.7256309047098,-1.5616802173778128,1.5966702111548767,3.1677988417618126,0.10548088276932469,-3.0493611885130965,0.09509927888761453,-3.3575223352083414,g
2.7256309047098,-1.561680217377813,1.5966702111548767,3.167798841761813,0.10548088276932463,-3.0493611885130965,0.09509927888761449,-3.3575223352083414,g
2.7256309047098,-1.5616802173778126,1.5966702111548765,3.1677988417618126,0.10548088276932457,-3.049361188513096,0.0950992788876145,-3.3575223352083414,g
3.5204702498091955,-0.9171904798192874,2.1099409569996523,3.404705438769615,0.33193920764144563,-3.1708091616384477,0.25560187227116316,-4.526717499481016,g
4.4978669433117755,0.42070436939754485,3.0349692879414665,4.396637485763257,1.1696344612839742,-2.106136959194734,1.123317309026754,-3.967132807914857,g
5.577288144701663,1.9664658376298974,4.139134879813286,5.730647360898888,2.239795127281758,-0.48617932348281956,2.279582606102761,-2.4506217403481907,g
6.527952533441604,3.097436925398561,4.981768874596935,6.761808102687178,2.9668513797837757,0.8089185588153635,3.092451956397685,-1.0920220241902538,g
7.175438797742369,3.5288585874050695,5.250677471157628,7.085020338931585,3.0079692243467053,1.252378564802907,3.1840077961057123,-0.6206219564307149,g
7.556023603243572,3.472335629167391,4.985410758791045,6.797948708163334,2.4799692068428882,0.9389711703257777,2.66920727428984,-1.0469838334583574,g
7.887810950005718,3.3771613629033035,4.521118375030048,6.376747499443438,1.8288964297332608,0.3568914164034254,2.010421473801334,-1.8824758412803426,g
8.374309133481525,3.5229818975354776,4.20927358730512,6.284005711256272,1.4748014825829114,-0.06833124658606038,1.6428302033554985,-2.5973344571809722,g
9.001016827218626,3.8099387968645226,4.1379248447828,6.611404627978334,1.5089596037607627,-0.2756866743782621,1.6623996435070676,-2.942918749663883,g
9.49985390328606,3.8662979767790318,4.065086389928144,7.0163832141509435,1.6512187001573895,-0.5469835261806857,1.7827018356258304,-3.013681578337196,g
9.517548693998034,3.3393196242752934,3.611999561887635,6.9880100827805665,1.4815073078955627,-1.2427965495779902,1.5723068189991247,-3.1099502450608654,g
8.855361805674491,2.1505251233613025,2.565612198644962,6.232273505291544,0.7695480046296959,-2.496491136519574,0.7961967853363318,-3.5015863463052623,g
7.60094433121237,0.5594842812629376,1.060384195350911,4.884273803345524,-0.34504830932402664,-4.078088526751044,-0.39600144241731927,-4.234542905810352,g
6.0748717517938235,-0.98953892014251,-0.4899765478027672,3.4025530389279544,-1.4558949473254237,-5.53948464872682,-1.5801436324760867,-5.13423456672948,g
4.654228635438653,-2.1184031224911877,-1.6442489302125192,2.253361483573066,-2.178911600178341,-6.530379748710999,-2.3628234728459465,-5.997961209107473,g
3.600230573598104,-2.6785783400036864,-2.1746922617473925,1.6359051634290906,-2.3859060168151944,-7.007180876656685,-2.6203649670557643,-6.764614585160286,g
2.986255314074949,-2.7412225007835813,-2.1389199187838805,1.4333667009140623,-2.2196644041940607,-7.166389588279328,-2.502444885731371,-7.492149402628525,g
2.7425127183201554,-2.4955724120799005,-1.7709215774934006,1.3847702778056785,-1.9324951396541927,-7.223273619812771,-2.2585362482574936,-8.219823662435463,g
2.758484339870135,-2.1736978543252232,-1.3038145152219296,1.31955299753979,-1.7098631086984102,-7.277117480808281,-2.0630337789845585,-8.897059660654097,g
2.9597329969603785,-2.005253434453527,-0.8526415951653712,1.2766457555250543,-1.5959084451728005,-7.338204874472604,-1.950433098170309,-9.417176186087467,g
3.3161646223745236,-2.139422433746969,-0.41180494909035625,1.4347099061508737,-1.5284967493982713,-7.40265504761454,-1.8567805123249919,-9.668470907262334,g
3.8020974192068606,-2.557707298863042,0.06308077865942394,1.9261603749560066,-1.4284890191161819,-7.47750610818955,-1.710762882975903,-9.568502970625683,g
4.354419455149037,-3.087572357533313,0.5591605403388973,2.689084839854235,-1.2806971284619195,-7.5724195012674205,-1.5139183570032309,-9.108196630303956,g
4.858141707916845,-3.552133590007121,0.9598104984515408,3.470795274072169,-1.1613911765841767,-7.695667355203838,-1.361427653566335,-8.37425933615759,g
5.169124388494724,-3.939298261539009,1.0788828885074508,3.9736550525509196,-1.2037185580880525,-7.85135578536771,-1.3958001495586045,-7.495498354853811,g
5.172734306402583,-4.439372626579909,0.7608261306988499,4.030038849503095,-1.5349649328587023,-8.043584996400119,-1.7393555828932725,-6.568970015329326,g
4.852334081239763,-5.313402773694738,-0.013306035544117644,3.683109198628496,-2.2277954799928548,-8.307060398583209,-2.4544756860552073,-5.674898854069572,g
4.316998933328368,-6.6848911989443565,-1.085918836990429,3.1280494741792486,-3.2757519998262787,-8.729135690937541,-3.5303727646067857,-4.953389428107635,g
3.760331380252628,-8.399766119761342,-2.180174402770923,2.5709227989793826,-4.58322935455112,-9.39948318745832,-4.872653469434515,-4.6006111079825756,g
3.381889935914593,-10.066704099411268,-3.0198941605371585,2.1167800453307373,-5.978203799176383,-10.316161703004067,-6.308112023968413,-4.751903532392651,g
3.326918981544634,-11.277501534152293,-3.4395520072920847,1.7651498392800413,-7.2650127950778725,-11.364016855488206,-7.635199915415957,-5.384767995129256,g
3.661779436228149,-11.857063543136482,-3.425889717230929,1.4937935108054472,-8.298388349558767,-12.402302545606283,-8.701866752192121,-6.338883913174634,g
4.363448783755387,-11.942174348378845,-3.0804257931602774,1.3338937556098527,-9.026648747087386,-13.356005051807632,-9.449556392197254,-7.400322172615435,g
5.314546384087399,-11.832920749648329,-2.5397823899678214,1.3569981042675066,-9.477501459687533,-14.21530554558339,-9.89692665601402,-8.375870008976955,g
6.32793775076457,-11.76659918628469,-1.909059383674509,1.5920038891258703,-9.711232925144014,-14.979211135968589,-10.096339014090313,-9.158303833342531,g
7.218229012184951,-11.798553022304095,-1.2407951649719944,1.9681515639804872,-9.776255820116935,-15.62215127798223,-10.097116261257735,-9.766100877106455,g
7.893044633630481,-11.826986919358115,-0.5498583327392961,2.3546385662756153,-9.67875418111139,-16.08861794769312,-9.917219573012815,-10.284989162039905,g
8.405457127799417,-11.679934855202179,0.16655536440140412,2.6674913099735873,-9.372733838037197,-16.292126673019897,-9.527906696880727,-10.72752414007059,g
8.922508479582609,-11.200957411229187,0.9194647061570164,2.9444619978850453,-8.78454671968112,-16.140910583117083,-8.873983461806217,-10.968331490766714,g
9.61438297031887,-10.321210583140164,1.719204464922663,3.3142692852430073,-7.867998020628194,-15.602513735417972,-7.927985735266978,-10.85127177182605,g
10.52616134045473,-9.099973898397744,2.554505194379362,3.8786366900960387,-6.655934785983449,-14.745860436077242,-6.736964834481836,-10.35147050580255,g
12.366626673546197,-6.34521181497922,4.0744390245025075,5.324086086177943,-3.9198329868157367,-12.618273485237902,-4.1803137890168625,-8.91112557058903,g
12.87774784773183,-5.167485714731342,4.586419415497623,5.850657713996428,-2.786517036419238,-11.589392088791339,-3.164582640919808,-8.471991894874225,g
13.07083877224407,-4.189259617202888,4.898784259476208,6.113421619828353,-1.9977358943356402,-10.709481355632393,-2.4783518052909184,-8.473467009193655,g
13.070838772244073,-4.189259617202888,4.898784259476208,6.113421619828353,-1.9977358943356407,-10.709481355632393,-2.4783518052909184,-8.473467009193653,g
13.14302120226159,-3.277220239713647,5.092517118789721,6.1873070779740305,-1.547305574021546,-10.04261987731411,-2.093569972619184,-8.933940484526925,g
13.3249428035253,-2.2440843123327725,5.2787272844016595,6.191630868381001,-1.3228089712582125,-9.61265540817641,-1.8841100824164272,-9.711304554969406,g
13.704980781304211,-1.0246108711092305,5.5041234808927815,6.154457223016171,-1.2005182804812595,-9.422857860101782,-1.7285905519283613,-10.607113109911571,g
14.1569300698493,0.2151143409288509,5.69830791323685,5.969708918609596,-1.1371793221806787,-9.482309134881177,-1.6024314660448453,-11.499818419576695,g
14.418426084189424,1.1623156212519183,5.711756401211319,5.48322537564237,-1.1815297783472876,-9.777749512461856,-1.5756881572330028,-12.366073857409793,g
14.259147929264262,1.5811661045003524,5.419269798605595,4.627822893670082,-1.406667288159235,-10.214874693853343,-1.7307472014314669,-13.194148070852398,g
13.62401823164058,1.4805079645857055,4.812656737940303,3.494492330517015,-1.8289171674704399,-10.618940458395446,-2.081527784771823,-13.921693639402235,g
12.665099970021611,1.095304788987945,4.020015131644141,2.292360588154061,-2.369745635429558,-10.810877642781062,-2.547517486864764,-14.451281554758037,g
11.65405859692564,0.7233086324245329,3.2456812887206397,1.2396563838402095,-2.8757267493521113,-10.680329434120344,-2.9823033059625796,-14.675951276154404,g
10.836225903063722,0.5466322688532805,2.672912428941668,0.4657364325383405,-3.18770288699076,-10.20885573012065,-3.241657286302286,-14.489614453700204,g
10.30865241125666,0.5408765774639436,2.3826394510927087,-0.02260499108195546,-3.230753971210061,-9.474628804488528,-3.2670219366802327,-13.841328281026815,g
9.979685572473374,0.5162270214267978,2.3241220358780543,-0.3103612502468708,-3.0692667747536864,-8.649198789080867,-3.130793630533951,-12.822174955707112,g
9.62382765249037,0.2693064041684218,2.345987053875344,-0.5148287830910162,-2.878502326657093,-7.940587401346302,-2.9969644160124704,-11.667482923926652,g
9.007127559333249,-0.2560355374922447,2.271929190901725,-0.7327159642047836,-2.8458543858164607,-7.486469710796909,-3.0213025129143705,-10.633894463579859,g
8.03071718265038,-0.9230644024444498,1.9904548249062723,-1.0053391542351136,-3.0695899607017325,-7.291142052073456,-3.267484574628912,-9.87007308653006,g
6.820803814377795,-1.498553343313178,1.5201409690674255,-1.30092961751454,-3.513055575494686,-7.2656254889045275,-3.68500563794764,-9.389149505404566,g
5.695912883058332,-1.798471808737963,1.0087850039177213,-1.5276903437370624,-4.030253791105439,-7.314506670770719,-4.1413859742758445,-9.112188675819578,g
4.995023193052466,-1.7846943556241022,0.6438458598079749,-1.5979830911339519,-4.453549912152668,-7.39365550693212,-4.494069087897129,-8.922241954218512,g
4.851318207755814,-1.5864388757055359,0.5123518242772983,-1.5209760908833618,-4.706546113185826,-7.533353149637972,-4.683142670221355,-8.739388527084895,g
5.073148589783921,-1.4419489793906282,0.5164495735549,-1.4401157849411106,-4.859304086535936,-7.82772988954238,-4.779128685826565,-8.598526185941456,g
5.2515249324927815,-1.5484158923857465,0.4402163697553105,-1.543646227933821,-5.050654710142433,-8.34770820696804,-4.911143438340416,-8.620726913936782,g
5.048883562391337,-1.8819403319087982,0.14407652792638054,-1.8871182938815534,-5.315503360746604,-8.996910203950199,-5.10663039072922,-8.845580857461337,g
4.464501074193244,-2.1448402082762916,-0.26599663386128164,-2.27517005023166,-5.472004557904146,-9.458601963289498,-5.191140935791987,-9.09335831864651,g
3.8651574092263976,-1.9347686512366722,-0.4503587419520122,-2.3314459829968017,-5.192993591576572,-9.349160067836795,-4.861788146355358,-9.038235262611458,g
3.7384768378951834,-1.0241694802301302,-0.043426255696491854,-1.7368796534620308,-4.222357270657627,-8.479684040302368,-3.886198698841448,-8.43737089307684,g
4.343474728897703,0.47513734145412806,1.091240328830526,-0.4646806658836885,-2.56946896991444,-7.001436789493935,-2.2718394827390314,-7.295548550291431,g
5.522617504079556,2.182589787939056,2.7524047166265055,1.1777216344798407,-0.5355312358085446,-5.327084865561938,-0.28767426064546286,-5.847306223751739,g
6.818233163110641,3.684313246101374,4.521671786881484,2.7460448140079627,1.447442964183527,-3.9081998614932045,1.6709372248133039,-4.415077261035949,g
7.79249150400404,4.7597156126783515,6.014330768401178,3.9456271095652737,3.0517828437568144,-3.0163277841775598,3.2858478908457975,-3.2457967571349386,g
8.290665558083958,5.44387138914224,7.060003032555675,4.774846135354841,4.190015413723114,-2.6475603637074103,4.446164029296902,-2.406499175989354,g
8.453716356330407,5.88189350697071,7.683857470072702,5.412257753220684,4.944884147061336,-2.6179908735166793,5.200347257930529,-1.816777436557605,g
8.511932482771128,6.101543177526072,7.944562703291706,5.9624540426848025,5.3639997685203715,-2.7956422176055766,5.577866134986566,-1.4153777723287995,g
8.564467136943676,5.930268965863478,7.808802949140433,6.304932145080076,5.327476235786369,-3.2605742549141263,5.469104848755683,-1.2934608454547267,g
8.525814329484714,5.16018231026705,7.184452379031855,6.191918020918771,4.632745545015938,-4.209291107548802,4.703030814672751,-1.6185027822593412,g
8.249296637834217,3.7984214850917963,6.0619711635618305,5.503076258803471,3.217298873094632,-5.683148076061416,3.247775623243291,-2.4198289271884232,g
7.685673198800432,2.132476214598171,4.605128493092003,4.412429592106394,1.2948023870549836,-7.412765348358526,1.3228329939153574,-3.5002988711361285,g
6.925558726908247,0.5327796639751646,3.0882038216258954,3.2993206688021894,-0.7336685329850219,-8.954634664248035,-0.6944800285814645,-4.5890570140851645,g
6.10184723543756,-0.8146424482193415,1.7308594337182153,2.470492747018198,-2.517924302060441,-9.991577963118928,-2.4844241871401533,-5.556086683784821,g
5.271620718345763,-1.9995082539147067,0.5839015755896348,1.9396837092966297,-3.9442056567089923,-10.527851919460959,-3.9410564025259602,-6.463697745333844,g
4.414511462356442,-3.2334146619466346,-0.42371913502482716,1.4678890590944802,-5.118354256577687,-10.8293423871709,-5.150753885592436,-7.439418738352961,g
3.551888014697218,-4.5816030473310665,-1.3160322903380481,0.8335589271320547,-6.163551909707641,-11.158128697438656,-6.212867980645571,-8.507290983347257,g
2.848199190523823,-5.79070332793266,-1.940020775873642,0.08943634141020773,-7.0041828877543635,-11.487326663951679,-7.046154117470772,-9.492448381422918,g
2.867101861968017,-5.9002510301308595,-1.3228461819388575,-0.35301275966229173,-6.8369518985194375,-10.486466288892142,-6.845625972669033,-9.898365191835682,g
3.687405048604208,-4.388670349553206,0.05785406676156244,0.41319573796111264,-5.466442585850679,-8.509640196747664,-5.4706326746941,-8.963985946729887,g
4.699778586633603,-2.3250080736163086,1.7531820214829117,1.5944837153678548,-3.5853569267475884,-5.9241377728085896,-3.5879789336566157,-7.5483765579148,g
4.699778586633603,-2.325008073616309,1.7531820214829121,1.5944837153678546,-3.5853569267475884,-5.924137772808589,-3.587978933656615,-7.5483765579148,g
5.508355733129502,-0.41399928869219027,3.2581205161725904,2.715496457564858,-1.7889274407801712,-3.538773887057798,-1.7795146066769063,-6.1019815477036925,g
5.881552111922069,0.8493213241628859,4.209225232592895,3.414473171232281,-0.5659591040330059,-2.04160562681022,-0.5273867543995963,-4.9559403017504575,g
5.883588678973726,1.4347132340988202,4.5612372475945895,3.6597838675697334,-0.040696792385649605,-1.6015650011941311,0.03417812894026708,-4.186869489783736,g
5.801309521029104,1.7034785789558526,4.557362217485589,3.715456828782396,0.026420811528941712,-1.8612600321423411,0.12504060799766706,-3.677094612841227,g
5.916623597853755,2.086215823406074,4.526341481658882,3.9004538061317704,0.0019751517879267764,-2.2772283399028836,0.10401110660868032,-3.251281929531377,g
6.301449135741196,2.7365042600089695,4.6592150774963645,4.3451865275777735,0.09469276991819271,-2.530947668675907,0.19666407926436466,-2.7959377031328687,g
6.79917137551425,3.3971506309181647,4.9241490968771755,4.934350501995037,0.23440768022915554,-2.7199262964029494,0.3603966212396018,-2.338208524118933,g
7.202596028498691,3.598987551354277,5.165148401351468,5.454107368692648,0.19705420348775765,-3.1980985333137673,0.3819506053194896,-2.0342595170551117,g
7.477082684333385,3.0786031574384474,5.290125915833839,5.793852778088199,-0.13672168156541992,-4.187199389431557,0.12301824799056896,-2.0249457965923705,g
7.847495312330603,2.0903165994112523,5.3968177556338075,6.034080069444748,-0.6076538163187515,-5.475511672718997,-0.29395025596651136,-2.255810782819951,g
8.68179427256965,1.3299159120934418,5.748026585121211,6.375065178500525,-0.8274751703463534,-6.463646933975001,-0.5109251333780997,-2.4410297035342587,g
10.257729702481058,1.5073859642495953,6.625661780385627,6.9939871528187565,-0.39936814503999096,-6.515075172068023,-0.13449503249766778,-2.211976411210489,g
12.576223831929964,2.9054836349986823,8.167927105101267,7.947945900407641,0.8657803854368227,-5.316368394633469,1.0524998667221073,-1.307633954713779,g
15.343713104083458,5.2509310682336885,10.285817420718699,9.171671911030277,2.8736217519826694,-2.9981508425297507,2.9980547065337895,0.32349893351815806,g
18.126305014105785,7.954566076157737,12.696352704510788,10.53695986725316,5.324733153809602,-0.005429827221317041,5.4281269528610245,2.513540730100559,g
20.56346109207032,10.513536297497723,15.045756766180762,11.910663088356543,7.871455272083075,3.1408730418147486,7.983939127515816,4.931815085446071,g
22.495129052184463,12.78266838284127,17.048784727033826,13.170287855249743,10.253708176895891,6.053275842747825,10.371015234451766,7.212003511194387,g
23.930827557031108,14.92609456226144,18.56277493990296,14.182268721664204,12.339305772008581,8.566237028908072,12.433690390451204,9.0925942893063,g
24.918192015504488,17.104367180818,19.566037183189234,14.788595637730015,14.064824282709182,10.667048192799951,14.116851280126266,10.451299408558892,g
25.44352129119286,19.189472561358418,20.087813807460407,14.848529575880624,15.356486189895733,12.341449728695487,15.376904022847631,11.224368406005805,g
25.4500981711745,20.79252837329427,20.16474906031561,14.327501566808584,16.122181711201673,13.489895999401057,16.14781961556187,11.356602805746384,g
24.940050219743434,21.58248800846249,19.849400547907727,13.36007017060543,16.31879705138533,13.993407502180656,16.389944175948912,10.866623002588828,g
24.05144674827784,21.57570626229794,19.235075207766215,12.215164345685512,16.013771087953245,13.839264307569323,16.15026809716234,9.913694370729896,g
23.03504479579497,21.121885152556263,18.455444745491466,11.170309661484255,15.375024541692387,13.169240865623753,15.566481370797229,8.735858176219654,g
22.143253170959234,20.62726493603577,17.650556753716245,10.376776157323125,14.59872156489484,12.219931982308646,14.81700428852416,7.514698037260159,g
21.50463773650316,20.27386035163968,16.913865907719497,9.800137729645758,13.82222793663542,11.214423104396797,14.048923073391862,6.308898344579742,g
21.062601990040054,19.940077483210235,16.24610024982559,9.26775438998834,13.064749981411998,10.261331323346605,13.310305766493139,5.085007757574187,g
20.61959070076177,19.34749090380608,15.553915728022726,8.595333173595593,12.235654075080598,9.312981066088518,12.531252715258905,3.7826866020995977,g
19.963420365469183,18.31628359425958,14.715540423005532,7.717122834995926,11.227851226298366,8.242660609196822,11.597612729115172,2.390165570906839,g
18.99412154209676,16.94465043131072,13.676580134802839,6.728418671398453,10.038409424267508,7.01661816343231,10.478940142457974,1.013921002876345,g
17.771019096733504,15.56987604639007,12.498623545111544,5.803831421517496,8.807214671731794,5.801753671684086,9.291390790914798,-0.14105542074448052,g
16.46616977415479,14.547204167418599,11.323356175064339,5.059700737913145,7.732397743028351,4.875654017061649,8.229762365305548,-0.9193916716927367,g
15.27365439618049,14.051853965920174,10.291771343049275,4.4785219230143705,6.945161565579541,4.417798219898777,7.4403168222766665,-1.3547831015851413,g
14.327706114588775,14.058185320343194,9.479083749015322,3.944460135689868,6.451026416192856,4.39138008539056,6.9478122303419365,-1.6327744415289327,g
13.65285942483061,14.432487927104933,8.867581262022982,3.332615782587151,6.154639540841524,4.604496152882026,6.664539948053941,-1.9234340496426754,g
13.159064155780692,14.989328701726635,8.356230626295577,2.571626718837533,5.919720419840883,4.853917530977633,6.442961875656147,-2.2840050347117984,g
12.69512470570859,15.503905121995079,7.815035110897338,1.6597528453956767,5.637981325106542,5.0357990159287045,6.154226743970216,-2.6979470195560067,g
12.144876601174063,15.78682276193408,7.176619931172164,0.6616260953255086,5.30165977404691,5.193505785094969,5.782929748028017,-3.1275460941792925,g
11.507876199202112,15.819495407849672,6.50794389895483,-0.29884793518599106,5.038054817679481,5.4934139401346584,5.474910785191992,-3.5019220709791954,g
10.905100510796187,15.798814287210089,5.993492710535529,-1.0605223430434059,5.0512595898579455,6.110296071198803,5.466250958239855,-3.7148263217695487,g
10.498578880643835,15.997700676804067,5.823736808708487,-1.474106157203777,5.4871768591665795,7.077955894570626,5.9212385279450945,-3.689781620825619,g
10.36990625994301,16.541412493770817,6.059643704603696,-1.4715151702504374,6.316705772750845,8.235435663128332,6.802782994900312,-3.440924154048924,g
10.47835249636699,17.874581370468583,7.0869974798622195,-0.6152102756707701,8.223297798929067,10.144506522911442,8.830640435000154,-2.6533478951794542,g
10.29522886699377,18.009378944225134,7.400023603008957,-0.1562377487542877,8.821501263510351,10.646898392985069,9.48408710914369,-2.3144279254130584,g
9.88189824318245,17.67496680880695,7.509042629526034,0.1886796556273413,9.163209406015273,10.939130222093464,9.890506803819944,-2.0526511701382004,g
9.881898243182452,17.67496680880695,7.509042629526033,0.1886796556273413,9.163209406015275,10.939130222093464,9.890506803819944,-2.0526511701382004,g
9.475652439637946,17.219850501825814,7.653911728930652,0.5409484246312395,9.502247738787613,11.220598727173787,10.312869927117358,-1.757137015825192,g
9.394164472865695,17.10882757186484,8.12620978633623,1.0906039539302264,10.101046410248207,11.65307023697491,11.003903968440795,-1.2524683753714192,g
9.773679996755602,17.525932184380245,9.005152474812977,1.8888917563335568,10.987204253703691,12.217673353872502,11.960202296887232,-0.46964975320089347,g
10.419331916094535,18.17649204836824,10.038500707595253,2.737274250468199,11.882557513876856,12.68914550378081,12.870714449983854,0.4369726311954355,g
10.899428859181478,18.485430975342965,10.781789820982908,3.281915393899298,12.3864943368141,12.792963192033827,13.327823363278814,1.1749212463800638,g
10.821933019289713,18.01310105747704,10.891037720007239,3.2442562355678333,12.265566796762098,12.41859528140594,13.124128837887351,1.5186579056999594,g
10.091544678930092,16.730819216930495,10.343078695565808,2.6087919401072623,11.612890640235545,11.694444270459067,12.389007233537777,1.4346884950736771,g
8.962833064091686,14.980234670269372,9.428443354551113,1.633580672113696,10.77047298224452,10.886729811164962,11.482601280404616,1.0619864969560537,g
7.855529234113791,13.2241418246772,8.540346766093144,0.6874479949372978,10.102078059316835,10.249363561239699,10.762451141435848,0.6281514637483179,g
7.073108495724961,11.798897880027763,7.924618665622225,0.036573766701908504,9.790927995032328,9.934162430777175,10.39554485105307,0.3542993527094608,g
6.637705816450245,10.80606525701406,7.570137975351777,-0.2725718475321416,9.788133390187356,9.967731486845032,10.321566382233746,0.3496176325598427,g
6.358593425761062,10.169602852552444,7.304670370022992,-0.3662643809159176,9.921700969591704,10.27417369470459,10.367735812944387,0.5537089896361949,g
6.056853733613324,9.785491752335483,6.997782742133703,-0.3908976082039389,10.064291703858714,10.737503880175407,10.417299121749107,0.8060338544773444,g
5.744140910138221,9.630899427435459,6.6923279986018205,-0.38686228926565003,10.221834913157005,11.267295184413245,10.49482791742993,0.9919472317536933,g
5.610012272842817,9.750932717595363,6.5639021817905405,-0.2798460843306931,10.485979764976731,11.815819421882892,10.709468754765954,1.116850577612271,g
5.847324224469607,10.174974722353586,6.767295198059483,0.03109063549572775,10.922672661500995,12.35922229742158,11.134701244844878,1.2624669827275827,g
6.472907971453102,10.868157453747513,7.312150332583187,0.5808720606494767,11.509616315366564,12.89764254715613,11.745713425765684,1.5184067256571567,g
7.285020715642341,11.736680020075891,8.055041634519998,1.3112134936176516,12.154988240542066,13.462920555968083,12.442930445921519,1.9468691615425482,g
7.980670954637006,12.632516193677592,8.787954239328572,2.110057229363399,12.746663631288317,14.069309176858445,13.10180805265631,2.5406035783034158,g
8.337365026329035,13.356273030111055,9.347265843801075,2.872841812939916,13.188070297656305,14.628033403236198,13.608346514564124,3.178108088871914,g
8.324203638764937,13.719248364192996,9.677624857002993,3.5381979549272584,13.422394910436873,14.946258313073084,13.891925496247804,3.6664713732314893,g
8.070527908928058,13.663205767167359,9.825212424027857,4.078534156675249,13.450522152953525,14.858201932112987,13.955552735443604,3.8800222858059525,g
7.738160494949379,13.334011166555204,9.879570509533554,4.466613891415508,13.32859948143429,14.369860166189984,13.871854292614259,3.8522080339506317,g
7.413682704929357,13.02121866318222,9.911569248306451,4.6619981271758615,13.141665359061358,13.673757832389402,13.738408002564551,3.7195652593846917,g
7.098290566389463,12.990729397910542,9.945070844677357,4.637222576103811,12.97208919387898,13.02955782789984,13.63015572645719,3.6009780134865585,g
6.775262032626162,13.316637591488393,9.963908821665267,4.413822848762008,12.874667554318185,12.61540033768644,13.576728882682403,3.5381496749957435,g
6.479180127879585,13.81857136518787,9.936703406667991,4.063909296648303,12.8569080018142,12.44084588766005,13.558583224874605,3.496486582391879,g
6.3094288079265395,14.167526688578018,9.849493173703943,3.6723122882893273,12.876918954956912,12.36345643197679,13.520961578680613,3.3743771397250635,g
6.378866836928314,14.125547176238124,9.734631936473436,3.2938354488012562,12.876472748248176,12.211397847386696,13.416050365156465,3.0460890337306585,g
6.728799256352241,13.746907845968405,9.665770896444574,2.9349380221980046,12.8261058706376,11.93569423021569,13.246119385735023,2.4609697660947303,g
7.269020782750985,13.341246944605723,9.699504602271618,2.5629849423070277,12.728448431762775,11.650482622550038,13.050212175132916,1.7056583931900355,g
7.800338440802941,13.194979969068635,9.801825047983758,2.1364289412975817,12.572622900370353,11.504606642941164,12.835027642900098,0.9368631788807574,g
8.12160199772038,13.29798608398701,9.835995013671061,1.6458738707847025,12.303260746226218,11.515335170482704,12.53393453022198,0.25954737647609394,g
8.146679968356358,13.333220184964478,9.64425617136256,1.141294785865843,11.855493837919882,11.544060215006096,12.055834238996269,-0.30501759445816196,g
7.940969455528418,12.934436512795912,9.167087622954057,0.7189273489381476,11.223438454482869,11.425636409919054,11.37651989164979,-0.7619317275254864,g
7.6559058308650165,11.984988054955911,8.504777294917039,0.4729425171854741,10.489231774502311,11.100989736606657,10.578251396050941,-1.1106941432472452,g
7.419900970400741,10.729263749030538,7.869610710555389,0.44716100575343176,9.78555894562015,10.639528721895026,9.807824054763868,-1.3636893654197304,g
7.262589961104801,9.62733813681972,7.45581890749209,0.6127699386790126,9.223355694993113,10.17227266595317,9.195445806552048,-1.5402776921229182,g
7.115393373378232,9.048966173362462,7.313376237980508,0.8735680163728855,8.831269608823153,9.805530522593982,8.784844345464574,-1.6328407720239846,g
6.887310383678697,9.015086118976743,7.320481390418554,1.099612473989939,8.545383616778443,9.56041279682593,8.5119292204359,-1.6226283889283049,g
6.571111169149416,9.197765036077694,7.289714077548304,1.1924010270072267,8.268976235439553,9.37780349995993,8.259900601556538,-1.5374792963372168,g
6.300603800092629,9.205904683091095,7.134565211841577,1.1530747517939943,7.969371925408604,9.204425169503617,7.968214269666115,-1.4483955078936064,g
6.71597967787733,8.538006220513408,6.961877684437647,1.1578765214025093,7.658365564383542,9.140545482092708,7.592931322241597,-1.3553300960041823,g
7.525196511121971,8.387043945184086,7.294652065119547,1.4189085483245938,7.827178278944169,9.449194966941267,7.728856282540141,-1.3113264489398833,g
8.480305956128344,8.589381117729484,7.902922590119454,1.8220371785502156,8.161154390209052,9.955291870222677,8.066610221951718,-1.2863974040858541,g
8.480305956128344,8.589381117729483,7.902922590119454,1.8220371785502156,8.161154390209052,9.955291870222677,8.06661022195172,-1.2863974040858541,g
9.264399172316995,9.022643891585474,8.582973146974094,2.2410097504731263,8.528757277766292,10.527570492565342,8.485379997405309,-1.292037606909412,g
9.684071661204305,9.493803298903583,9.14280900141298,2.591246065794901,8.852468092441022,11.081985875799079,8.890859700312706,-1.2664863818425782,g
9.795065062994482,9.960512401267986,9.553881509060696,2.9137854602851254,9.175939308082246,11.63961797559433,9.28649029650521,-1.1082277617583034,g
9.859707904221192,10.589887625943778,9.964325773485838,3.3583355408086684,9.631051244572195,12.284649517300007,9.765355679366056,-0.7568395192705701,g
10.15590182038452,11.60304858002004,10.561800071149616,4.06802178665317,10.328387270489282,13.076414287899627,10.43142675264698,-0.22792588919582957,g
10.77282207997562,13.028904561824424,11.397884117794424,5.0487328032103465,11.245739293956913,13.966776967680067,11.29499175682299,0.39122713120060626,g
11.544080214430616,14.581563935593895,12.318927062954902,6.128755377010715,12.2002139787829,14.76799968518991,12.217904021054588,0.9469728523947779,g
12.163389473323699,15.79974331462339,13.058119489718868,7.047037254215844,12.937323052775572,15.224499138254743,12.96713374071507,1.263758683531588,g
12.390055357212193,16.358581531401605,13.406901936602486,7.60181696632568,13.27184702026356,15.169772187436484,13.34302223381764,1.249839899189251,g
12.19304842703011,16.280185762804862,13.322947066267508,7.744200886219704,13.163679235047692,14.633045561232404,13.271067900912266,0.9590602076496,g
11.735497164908319,15.84408620425415,12.896708075684211,7.554511022750702,12.675773928368782,13.781828119798789,12.786937569326454,0.5084393196956122,g
11.218154855970527,15.284285739523309,12.22246063225654,7.135753683947901,11.874191100175178,12.763285500988559,11.95604614290233,-0.0604284386717658,g
10.705802828043613,14.55996792078729,11.29444727955547,6.515929402772438,10.767941614917637,11.610609178499663,10.814564005379554,-0.8022629671069387,g
10.082966816624355,13.404092527331974,10.021328164250601,5.6378656799495035,9.329545615845628,10.281880523862034,9.370359233903637,-1.7597323695247362,g
9.188140157996743,11.599655645646616,8.351599463413597,4.448816752814138,7.569447131324611,8.75925617536255,7.649189858763165,-2.8735791476477544,g
8.015651414680624,9.251094184960573,6.404465709955735,3.0193205276930817,5.608542160169554,7.123318586706451,5.754282588049237,-3.993703780623042,g
6.79550735812437,6.825707127703467,4.481392386541823,1.5792797302455368,3.687759183835999,5.566925890223709,3.890376117829338,-4.940101670276381,g
5.860905548855395,4.905909446921162,2.922547052058036,0.41313051202061823,2.0783857629596745,4.323483106126594,2.300365384411567,-5.570341512903175,g
5.410860641338381,3.820304168642763,1.9092678560714305,-0.3177493952170541,0.9364819126745685,3.520121829659575,1.1333721240221852,-5.8612687057956325,g
5.377712423380211,3.4505505935268714,1.3752968485112507,-0.6746064055707748,0.22229869896551002,3.0708857648383088,0.3601944236161965,-5.9527963236811825,g
5.514564128137197,3.38881924385609,1.1048384496550405,-0.868037450517275,-0.22937492385330907,2.7453390460576275,-0.16556925626948468,-6.058786474785126,g
5.620849588158945,3.3090945921365167,0.9344845137986818,-1.068092050723583,-0.5439055299806862,2.3768099468699058,-0.5498306448003228,-6.285703319324481,g
5.707841933350153,3.2200844873896743,0.8885160241791109,-1.2572872772636436,-0.6969554675139309,2.0037831823714187,-0.756571040731733,-6.545682107051834,g
5.963596080407278,3.3995982915422793,1.1389121849233914,-1.249888497474552,-0.5512095581366202,1.8082667456946964,-0.6504249081729319,-6.65730173201557,g
6.55026527847135,4.110674743722639,1.8277552256853227,-0.8636181409172267,0.0036656866440848645,1.9356295820228382,-0.13108902786289192,-6.511154212479221,g
7.413301235313706,5.351883307603791,2.8970038235908193,-0.10468393073012883,0.9217666721466008,2.3671164496550894,0.7514373987136442,-6.144448735487741,g
8.280699626151641,6.813176145996242,4.06481246373019,0.7919604545727628,1.9729051656927445,2.9149278965385115,1.7758340306050857,-5.714034801257021,g
8.868278063458265,8.04632472784529,4.976754990020949,1.5151837984981846,2.8404928484291525,3.309790589025025,2.640265265935638,-5.424154246659562,g
9.112639899275482,8.732574577291789,5.420230230530624,1.9048064885829146,3.2913411619475594,3.3368642187442106,3.120593942543262,-5.418532820309889,g
9.212262088040614,8.85928802672038,5.430780237858528,2.0542346668945113,3.2972811430132056,2.9544543063175794,3.1862297779662354,-5.673897336576185,g
9.427634835092205,8.657177508187768,5.203748751393689,2.188191595057531,3.0046389156043167,2.294959441454618,2.9695572956459055,-6.016150571247967,g
9.817228720737406,8.342719656017092,4.891573844784221,2.420763297775674,2.5734975683419608,1.5218291342803467,2.6091949224940274,-6.298485964258616,g
10.14513538285743,7.905462884527583,4.464075981303884,2.616224559459041,2.0334920735827007,0.675024272793568,2.1159958587230574,-6.566405212181801,g
10.036272651503255,7.138286167380171,3.7439310185919537,2.4829278892067674,1.2825177277961461,-0.33601096142558234,1.3838709869562367,-7.011890719029646,g
9.239625951075972,5.851012767996774,2.5694076706112954,1.8162765305719037,0.2082642995689586,-1.6035605121431433,0.3125227806098033,-7.766188799107961,g
7.784965180876664,4.0391055207642905,0.9359917092195573,0.6759524281257022,-1.1926234739473018,-3.110674787298985,-1.086561591094489,-8.76078913463828,g
5.926838245991005,1.8770664511282469,-0.9914921417923814,-0.6513161553333153,-2.7899886417931627,-4.7295467725690745,-2.678363092320552,-9.7722967562113,g
3.94709934565441,-0.40110344283034555,-2.9822047495998456,-1.862996569108509,-4.3844413554881285,-6.28444443839895,-4.267548571142758,-10.567303208219565,g
1.9870600487802694,-2.6106759632563272,-4.855441751282888,-2.8424268176360914,-5.798424278892144,-7.613008386600853,-5.68069252047683,-11.02986810632934,g
0.03536993447835002,-4.647028778575974,-6.5166277067400715,-3.683558698273756,-6.933199042216404,-8.6123782985206,-6.820237380916756,-11.215157705463266,g
-1.9430721910135476,-6.429788742228389,-7.903487790839985,-4.526110221799616,-7.75983666191136,-9.257254918824433,-7.658174720431356,-11.28638947434889,g
-3.8659131338850043,-7.80861553978327,-8.912642634129764,-5.350953753949939,-8.260323559146231,-9.562568736445845,-8.176256172995942,-11.338407933778,g
-6.580234507096677,-8.442485832939138,-9.190371461437,-5.907814256638238,-8.049995346567846,-9.10285653163094,-7.993140368720958,-10.764285778774038,g
-6.923564826177328,-7.549222813011293,-8.292670254869378,-5.146531369902383,-7.246733424146633,-8.320779979020223,-7.181960195127869,-9.71286687869431,g
-6.554669165155303,-6.188564227633369,-6.818909317169431,-3.743735136383485,-6.045112808247776,-7.285368157508467,-5.954991916164562,-8.218851662944612,g
-6.5546691651553015,-6.188564227633369,-6.8189093171694335,-3.743735136383485,-6.045112808247777,-7.285368157508467,-5.954991916164562,-8.218851662944612,g
-5.66157968022891,-4.768966050517362,-4.991800287472708,-2.0250583387013936,-4.59175075666675,-6.159484722406771,-4.465231572205979,-6.61490788780768,g
-4.475677771749551,-3.5168476055201934,-3.0216885487384757,-0.31880245825283565,-3.0338077406080326,-5.066675374688009,-2.872303004325824,-5.220680378550284,g
-3.1348763604641787,-2.3692003490258826,-1.0144429169403002,1.2428616236609866,-1.4524183271074225,-4.034058859827434,-1.2723779818225336,-4.163927989226231,g
-1.632327436660456,-1.0973804220980004,1.032739400321725,2.7546352637989564,0.15105376810301632,-2.9970982874211685,0.32577943275138405,-3.3458577890201213,g
0.1048842303999649,0.44513061655351666,3.135934058667909,4.374793100172294,1.7951311643249834,-1.8590389678667478,1.949572924300023,-2.546369085137301,g
2.0624697206277043,2.1232319691594475,5.1955355785078385,6.097441506465118,3.4126234231612145,-0.6005003953976811,3.5499354326980437,-1.6282640529331591,g
4.034650781320824,3.515489498460974,6.942833313115642,7.649835771546042,4.786763059922289,0.6184764595480781,4.918496845532279,-0.7180233814647223,g
5.662312273342907,4.146713002080358,8.029480307904821,8.60855236251471,5.615982659856047,1.485572911569951,5.743161392654151,-0.17888834276345317,g
6.598708281228896,3.8165762071421967,8.216926755932635,8.653043455356135,5.691250537745068,1.7318072837041794,5.796551087633555,-0.3414795081464693,g
6.693344308471292,2.7614885375422515,7.534936116551617,7.7709815334757435,5.053240540884657,1.344645543613399,5.110285192030588,-1.2217614514903836,g
6.073783388485819,1.504668685475668,6.291997153599494,6.274678030247888,3.998738195045705,0.5978170794446711,3.9870042528472056,-2.4901037780253157,g
5.0705972734137905,0.5197496608975001,4.920908080402048,4.625751832758677,2.926192392011185,-0.1281173369269216,2.839869963450656,-3.694983371631257,g
4.0240938471235,-0.036023383535799,3.7492254407366232,3.187230412714282,2.1239003035005384,-0.5791900382765384,1.9719090624333908,-4.526982276536245,g
3.088841799597193,-0.37131684102298657,2.8345874183321156,2.0610915593769152,1.6300509898941429,-0.7572828084949322,1.4285202117864018,-4.9518649581887235,g
2.170332087202336,-0.9044453254031012,1.97819089438828,1.112233922342942,1.2514278108023693,-0.8844940414886239,1.0129884143355654,-5.178192998514229,g
1.05161708909534,-1.9862547461296498,0.9243315144972801,0.15420716767740855,0.7416813104497242,-1.2204153449023063,0.4715768009122964,-5.481281333348507,g
-0.37477973127644815,-3.6421824886039857,-0.38753128649714624,-0.8470273382594214,0.022788441963932104,-1.8370592974168265,-0.27172956660653885,-5.966709002768278,g
-1.951246074120838,-5.521429639314814,-1.71770862819383,-1.7109987065784273,-0.7310894185436203,-2.5387389162823295,-1.028089972150186,-6.46211379318847,g
-3.3101507690420995,-7.134604620925131,-2.668095328960212,-2.1687805966642864,-1.2325524473089011,-3.0338449255320734,-1.4975169210918904,-6.674836394741203,g
-4.110261520817702,-8.202719544652906,-2.9680842816432245,-2.0738338542727996,-1.3252977759359437,-3.210498610144944,-1.529773540107386,-6.483558137352963,g
-4.279279945111162,-8.813895103333284,-2.679121814714379,-1.5341024600116477,-1.1166289217336125,-3.231622195456056,-1.2544053695212418,-6.064626390291354,g
-4.074529773183792,-9.27182703580629,-2.1605133722482632,-0.8689422705117898,-0.8939069471577501,-3.3571573247734365,-0.9786893777322595,-5.740099820111978,g
-3.902435400382457,-9.80619390116092,-1.826332219531333,-0.4218777034099019,-0.9136198140583348,-3.6958653924356426,-0.9633581264306471,-5.733844758987827,g
-4.018089280034359,-10.386647538623222,-1.8716714561655217,-0.35570816317740583,-1.23208565434352,-4.126929320935723,-1.2557683518665688,-6.056660065624934,g
-4.331044926582907,-10.741624567490602,-2.160792673741857,-0.5673819490396896,-1.6848486461894439,-4.419779412942258,-1.679911698978825,-6.55068452673589,g
-4.480590456476897,-10.542333583438849,-2.356076748770901,-0.7834017616418196,-2.0137495526442386,-4.413315050049758,-1.9731880825645387,-7.011035810535363,g
-4.137393973353169,-9.64467569143933,-2.1965093247420326,-0.7738921655362128,-2.0540453565418506,-4.123231107768589,-1.9796362756774784,-7.324174365891264,g
-3.296467779612917,-8.238537399493769,-1.7188809961831844,-0.533828225416047,-1.8536638068836517,-3.7195967261323766,-1.7672538997627503,-7.553738989564866,g
-2.3227658800776436,-6.781500008668824,-1.253007693030876,-0.2974658497590225,-1.6394478212899528,-3.3894577128066787,-1.579884339445166,-7.8828882953646655,g
-1.7114046299505112,-5.754466989967582,-1.2001477520308605,-0.37513121552151285,-1.6651571293016487,-3.1926211082397136,-1.6675355598312653,-8.437682321875803,g
-1.755203045737741,-5.433611188649492,-1.7720831188956574,-0.9354607742525788,-2.0672481989066354,-3.0541547876744097,-2.1395463007039544,-9.171680463542499,g
-2.375185415357519,-5.83215970542045,-2.881132859971788,-1.8927925430205057,-2.8223797470950793,-2.905829156557899,-2.9389303378401297,-9.932476106341406,g
-3.226051992732882,-6.784032883898112,-4.23449972739637,-2.9739971718067784,-3.7957437361423287,-2.809140953581378,-3.9110142880118355,-10.605016093894774,g
-3.9715357265985594,-8.051579735071183,-5.533206788634123,-3.90423233670274,-4.815322970131047,-2.911508994077125,-4.886562479958466,-11.159283612933976,g
-4.507187665966244,-9.399751652542342,-6.62306825634122,-4.569491899902056,-5.730944548222757,-3.2954653664519453,-5.738628015124123,-11.596957858274752,g
-4.969997386904832,-10.638753253729458,-7.506918811930222,-5.040754849179012,-6.447152754362951,-3.8959097943572587,-6.406166924262254,-11.909241930996266,g
-5.555618245945995,-11.62903398487735,-8.240809823882824,-5.455177650513585,-6.922510600289568,-4.549465948708076,-6.87595791196932,-12.075871866313214,g
-6.316101939668598,-12.254920602751527,-8.819401013835359,-5.8598323152512375,-7.140149208375631,-5.0934095916635425,-7.133893806234278,-12.053763721325058,g
-7.109617483869582,-12.420611221704311,-9.14878571612251,-6.147500446695817,-7.079900604086406,-5.430918440899783,-7.134266664922913,-11.766195344375745,g
-7.7256130703777774,-12.09716067579311,-9.11661190800248,-6.132229609843284,-6.717020372624053,-5.548375874053512,-6.819884557635879,-11.147554804182082,g
-8.054599282843423,-11.356411870441022,-8.682630586713781,-5.695100613529215,-6.037044065741107,-5.486199089250621,-6.163577744944785,-10.206299187629655,g
-8.152319977704463,-10.323587047573373,-7.910130914520872,-4.8800735042015555,-5.047577175305045,-5.272288307162644,-5.186729936172107,-9.014894210625807,g
-8.20846849984083,-7.737194754989251,-5.89119955076655,-2.905471393885695,-2.395762965247372,-4.284277476872957,-2.6178134016773793,-6.192272862153136,g
-8.313329258294193,-6.345555079020564,-4.937264018759029,-2.1535981431776463,-1.05806310591854,-3.5481043600692788,-1.3615794742828853,-4.79866839142744,g
-8.466887851186826,-5.113102058547386,-4.2141987068439395,-1.7246447724667344,-0.0437966217999727,-2.8553651393160786,-0.42837885703281564,-3.7026967187993796,g
-8.466887851186828,-5.113102058547386,-4.2141987068439395,-1.7246447724667342,-0.0437966217999727,-2.855365139316079,-0.42837885703281575,-3.702696718799379,g
-8.68593671983459,-4.2905519986036555,-3.866433957287088,-1.6797028565505046,0.421352670035937,-2.4158529096637102,-0.011296143640332356,-3.1108972530638574,g
-9.034441461119023,-4.093800985130275,-4.001204910588326,-2.0496482699786482,0.23860808736637057,-2.362620110621278,-0.1919423205493752,-3.0982420676596414,g
-9.561808115736877,-4.602793414036717,-4.6318462342844615,-2.8061260182658145,-0.5281153482703218,-2.7200126807778364,-0.9183549835646072,-3.6042805495419876,g
-10.221759751245594,-5.693830092414651,-5.645234600871687,-3.8268718367441883,-1.6877816417951899,-3.424270836964342,-2.030474257331429,-4.491456797373886,g
-10.855283792577838,-7.057260144617606,-6.832058890958552,-4.915977890731023,-3.0099784045814153,-4.35080376493679,-3.3238462113725236,-5.598116688746922,g
-11.260815150576779,-8.327870334740481,-7.966488986387664,-5.880819432776132,-4.315223166323041,-5.351502364918729,-4.626139448215279,-6.7846259746347,g
-11.296567697548744,-9.250617381583709,-8.874170231750917,-6.598497867370253,-5.504524203062289,-6.3024115759889465,-5.83077638819518,-7.961686449945786,g
-10.943682720605048,-9.75134362450852,-9.444649880686901,-7.015059327518007,-6.5087882046134355,-7.118732916792711,-6.854972660086121,-9.046745931165677,g
-10.304293418476622,-9.887833308724478,-9.60917165994005,-7.097238187236707,-7.223211066575469,-7.725960079631102,-7.578504532490662,-9.877290750134785,g
-9.552096823035097,-9.779773207659458,-9.334203284238887,-6.8035152545620665,-7.515008040600767,-8.05000311645443,-7.857325232054177,-10.22231533382302,g
-8.861839149917632,-9.576204361905265,-8.641362954411601,-6.1100051107231526,-7.306719285133728,-8.063168740286859,-7.615916975055105,-9.940274464347691,g
-8.342476388914452,-9.408004527659944,-7.618211914380299,-5.064716619948061,-6.644044705216439,-7.821330033519717,-6.916040466527379,-9.116226721466681,g
-8.005827144677125,-9.3027835063424,-6.395508029808663,-3.8166672229490857,-5.677106095320008,-7.425397933176649,-5.925589263906981,-8.004898097620536,g
-7.796339661686611,-9.163275215924681,-5.1102025033781615,-2.5861674899328677,-4.582822707889906,-6.9526223918083785,-4.828156260450929,-6.84384527430593,g
-7.66784623097266,-8.886290443587745,-3.8841338887058816,-1.5843047333133065,-3.5021837619086553,-6.444520286742685,-3.760123460605635,-5.739564457042505,g
-7.648012375100985,-8.515722791708217,-2.8194854292267375,-0.9281791184392685,-2.522882118816711,-5.941687224686665,-2.801238472735571,-4.698058775416267,g
-7.831992583832646,-8.25065584873831,-1.993597179424512,-0.6095159053753305,-1.6887194043387026,-5.488682943520669,-1.9889130306741616,-3.707708575870811,g
-8.303208551656171,-8.29034179937754,-1.4493365184292153,-0.5399323925504506,-1.0168613844496517,-5.1003357855549085,-1.3363524796139674,-2.797050823714918,g
-9.042416724599542,-8.672156353335557,-1.1920396670172857,-0.6357885517774055,-0.5165247052359865,-4.752431899279594,-0.852078511785302,-2.062104737155491,g
-9.899550127580595,-9.236311757199513,-1.1972595259765832,-0.8740609669608052,-0.19854141439855616,-4.413042289923103,-0.5481586931974,-1.642781271427228,g
-10.654695435492274,-9.715951785141481,-1.4220584091789614,-1.2803095003676521,-0.07040995339017644,-4.063778139028704,-0.43056863718874594,-1.6288371952836307,g
-11.124931877397964,-9.87875828051271,-1.8137585969403112,-1.8701825952639985,-0.132228573940564,-3.693609505703308,-0.4950829792115285,-1.9763122293795778,g
-11.239845259422832,-9.644793170423103,-2.3157627908341594,-2.5996709447682815,-0.38514139687450394,-3.3046256344352356,-0.7443930445074104,-2.546942124349006,g
-11.03832473597488,-9.112483643596551,-2.871502610435228,-3.3635213806856035,-0.8330925890235727,-2.935528207994624,-1.1947877327958611,-3.230976064939475,g
-10.604459109143676,-8.468099657174662,-3.429426417396237,-4.038955476635961,-1.4581995927220956,-2.654773095500346,-1.8405129535841442,-3.9916716112223076,g
-10.000571339039364,-7.849971196917191,-3.9523841601404968,-4.538726772379475,-2.1935504152532523,-2.5150107047702,-2.6104905579280784,-4.786768266870689,g
-9.240888082181868,-7.281484819427047,-4.425737035523187,-4.835007478260093,-2.9351229105448198,-2.5257665339152178,-3.3810516921848603,-5.502908595307899,g
-8.309280912808815,-6.706295904051236,-4.851635880529857,-4.9443995442754645,-3.589791307894173,-2.6689446857893904,-4.0428970302723535,-6.0024523176985936,g
-7.200956811768161,-6.063471033308586,-5.23181275450678,-4.901163663616011,-4.114609117002906,-2.912494153857485,-4.55584927336089,-6.210989421089776,g
-5.9642147594387875,-5.3479897989956005,-5.5625298245079815,-4.752629884103077,-4.522920119408548,-3.2034274767685837,-4.951770899751938,-6.147888118222779,g
-4.717184700705873,-4.650426544801039,-5.85415759739516,-4.574493252565519,-4.870411905625514,-3.487602038870297,-5.305410720804236,-5.914393786925609,g
-3.6195315578905167,-4.150406543469332,-6.147142085881815,-4.464126511563691,-5.227184920799792,-3.7646075559112413,-5.693352127322106,-5.674693846749268,g
-2.804054872306255,-4.01176738004459,-6.482196917010502,-4.48262504160072,-5.623728228908481,-4.092865560164861,-6.136385541060911,-5.591741672093515,g
-2.307445069627299,-4.214440625165947,-6.830468351890936,-4.580859224031339,-5.991028688802809,-4.495347255348787,-6.547641480276779,-5.714628036226443,g
-2.052502945554397,-4.487082908032617,-7.05356714663598,-4.591201616504794,-6.160733149603283,-4.862680124500262,-6.748586052159451,-5.93588634891872,g
-1.9056845182869306,-4.46754180818292,-6.960996838914807,-4.327240217850009,-5.960285854919102,-4.985348949267626,-6.573391531551431,-6.1008146002521535,g
-1.7768874857700303,-3.9945597925668053,-6.446090677046674,-3.7298743480778347,-5.3416314136998855,-4.701297156979246,-5.987302555577841,-6.15564846347952,g
-1.6889244699355725,-3.2723093740678393,-5.59376524837616,-2.9345870289236338,-4.435682724220204,-4.018735936732911,-5.120915847477088,-6.164877408015966,g
-1.7640139797152863,-2.748425644580502,-4.660017138088728,-2.1890747851437533,-3.4850698727221117,-3.1172568791414936,-4.198740692503182,-6.2042972752163354,g
-2.1413388164857268,-2.797941328950849,-3.924718456282764,-1.6796678371487683,-2.7031819599428406,-2.245013764987275,-3.4177208440876945,-6.27095385612403,g
-2.8905702589496256,-3.456358561656919,-3.523101299535283,-1.4069753323035252,-2.152130119857376,-1.5798333196283145,-2.8451261586320493,-6.272688924116373,g
-3.9763803917329796,-4.3931150550031255,-3.379135920022185,-1.2109586952867402,-1.7170642866705506,-1.128299375121569,-2.389401840887008,-6.057219857346603,g
-6.649395189703012,-5.423687240667056,-3.0773049263281274,-0.50835009647727,-0.48509934503043206,-0.2565235817935217,-1.177268643558959,-4.478250323715553,g
-7.956874027675987,-5.322393007356973,-2.7497787886930487,-0.11570008129641325,0.36047241053659546,0.32471987396549223,-0.3524741489115458,-3.2198954392708807,g
-9.144570400341593,-5.177351511061901,-2.478630327791273,0.039017290864259556,1.1000666033595148,0.8129649756226558,0.3872546912505179,-1.9713670874614824,g
-9.144570400341594,-5.177351511061901,-2.4786303277912727,0.039017290864259556,1.1000666033595146,0.8129649756226559,0.38725469125051787,-1.9713670874614824,g
-10.241577968841929,-5.297922906546419,-2.4985974646141567,-0.19465003617353557,1.468305655019123,0.9496072052925244,0.7812419905468582,-0.9721416817012691,g
-11.32285577581651,-5.744365366786556,-2.9517569325229003,-0.8219795748949202,1.316233456025855,0.5664115900358118,0.657979273029803,-0.3354424876365386,g
-12.415906272248865,-6.3234428159857305,-3.7925633039967805,-1.7203008786283647,0.6830007847481979,-0.329446009686923,0.018890376301636414,-0.0782917938120287,g
-13.41575673497936,-6.742552714526573,-4.8021778665840715,-2.7091790323556273,-0.22866735121574985,-1.550497070743694,-0.954747018036983,-0.16294451298671656,g
-14.088074713886787,-6.78392396243739,-5.698655424751051,-3.616702677360613,-1.153014341237027,-2.7858118651074744,-1.9777743151928557,-0.480618263747796,g
-14.184778116220778,-6.418294896988941,-6.279526966297781,-4.316324677170497,-1.8919600519753383,-3.7269656751591556,-2.8001948369593324,-0.8511328672543176,g
-13.605196785775817,-5.828803969204475,-6.517937941572643,-4.741234125300591,-2.404983788467179,-4.222767229216741,-3.3330417101691885,-1.0970751977841533,g
-12.488186468347221,-5.320131888153319,-6.560246128400197,-4.893436106581186,-2.7995188667572917,-4.347632193697248,-3.67075548818028,-1.1259996030563346,g
-11.15967431538724,-5.13401976272385,-6.627976149476107,-4.850545397926441,-3.23225051629282,-4.316871389453761,-3.9970848231256575,-0.9479318007865688,g
-9.961144371384261,-5.28330426923252,-6.879709926293566,-4.74914628381733,-3.795301699635048,-4.324808005108318,-4.451327772976356,-0.650082638721736,g
-9.075664501882908,-5.5332724696294875,-7.312461994865184,-4.722990910488437,-4.4563769091510235,-4.436232289843366,-5.0397502406228245,-0.35598218740708565,g
-8.47469803276777,-5.555165387305073,-7.76435476682528,-4.816388961338639,-5.073588402434255,-4.582503833716087,-5.627523918055974,-0.14036066999482333,g
-8.014857016942393,-5.15183235718347,-8.02180772638746,-4.939944027254997,-5.4709109007729895,-4.633671658371056,-6.010784226549638,0.07095930876989072,g
-7.594214918426127,-4.407836450690936,-7.9621224601324005,-4.9236163905577675,-5.539628701361724,-4.504128978950247,-6.041283946320817,0.4844162853260185,g
-7.239907890838969,-3.652881198518466,-7.630774695474889,-4.645211959287362,-5.306521115376366,-4.235841776455213,-5.729704434959848,1.2589175557819208,g
-7.071038923628469,-3.2347298386070875,-7.198935272248034,-4.141078004999487,-4.913784935489045,-3.985437168353388,-5.241036304461267,2.3309514067082384,g
-7.186007191577863,-3.2511455095890573,-6.838693496814753,-3.6083741934601528,-4.519811261504915,-3.9064471503746425,-4.775287754314766,3.436882472363897,g
-7.569193066955856,-3.4682592554353056,-6.610697892846366,-3.2835729104450047,-4.19893644048373,-4.033710399719189,-4.431348059627465,4.302301126467709,g
-8.081740832382609,-3.5195857064729688,-6.437755342822859,-3.27507359559875,-3.9120642859292616,-4.27826797937057,-4.1593546564823445,4.809718141816376,g
-8.540588552939393,-3.2203825073448824,-6.1726724102715576,-3.476690850343715,-3.554514607746088,-4.506880438856797,-3.820627411894614,5.036795612983475,g
-8.837221805166264,-2.7226667744612474,-5.714880288567035,-3.646681621383974,-3.0433274224305236,-4.603673340708774,-3.303536424164671,5.188490207132424,g
-9.015886020881226,-2.3945932638707768,-5.1042517573793935,-3.6080878111715697,-2.40070319672101,-4.48993141884795,-2.630043235139307,5.4636176303831325,g
-9.243070941957999,-2.543384089975516,-4.523688578975884,-3.4068670598255046,-1.783861015955127,-4.1546036420619465,-1.9875263480830412,5.905401120691892,g
-9.677922471807765,-3.1937438122531354,-4.195401553866562,-3.2849353174289164,-1.419870443447152,-3.693042603446331,-1.6411710345001598,6.352996885906583,g
-10.349545890805267,-4.0732154564668495,-4.245828114923222,-3.492056544279529,-1.4734678850652778,-3.2839254772127617,-1.7702544382976022,6.573891797383572,g
-11.154301251854966,-4.822985186634424,-4.6522171135027355,-4.107543708224293,-1.9543263562873114,-3.0928077655238093,-2.3625912040867414,6.464274042163558,g
-11.970560833804194,-5.2868729718655505,-5.306495543875021,-5.014353571647226,-2.74327451192807,-3.183708113529122,-3.2596330340841746,6.114006608627157,g
-12.767686090614633,-5.631849124055323,-6.115599768848684,-6.010557124228237,-3.695839382623892,-3.5016917600814055,-4.290582419808019,5.704958773541949,g
-13.598995719831843,-6.17537415736902,-7.038537181903015,-6.936137736810141,-4.716281696299175,-3.913821515305527,-5.357734799916981,5.398761553497451,g
-14.496253214698777,-7.079867632530093,-8.049772812519167,-7.7229998929587325,-5.757354996253027,-4.284636193900316,-6.423244705092381,5.307861938008236,g
-15.377564446474867,-8.205742129207955,-9.092933508164393,-8.36689928274161,-6.785286608495231,-4.5715974095111775,-7.458668998287964,5.484479137277022,g
-16.05468461240391,-9.228522752379074,-10.071902234829434,-8.87222444912403,-7.752309649536578,-4.872990245874179,-8.416059269933715,5.8853234285219695,g
-16.332683656840622,-9.865442894499193,-10.873223686992024,-9.217665396876964,-8.582135942160837,-5.341992520619433,-9.220687261807596,6.391082705872223,g
-16.12584296643902,-10.018961107954379,-11.396323265630018,-9.361248463909012,-9.17257729927844,-6.0100296360414545,-9.77828018569384,6.913796200473459,g
-15.506591209922624,-9.783451762939562,-11.578950002389206,-9.26910940943257,-9.429909632773128,-6.7027551885675845,-10.00838078061821,7.4708160666378145,g
-14.654768171864436,-9.356276775854658,-11.4109039648219,-8.937007656610445,-9.321362687858516,-7.1591334716388975,-9.890885418629114,8.12292244181402,g
-13.75106789011368,-8.907526447978743,-10.932410794464655,-8.391689739564722,-8.900545919939384,-7.240472207460471,-9.481942331400688,8.858421364435527,g
-12.898239235051388,-8.483849607038108,-10.222118024776533,-7.6843859242546815,-8.282530616399288,-7.028054670073215,-8.88450689775541,9.564872845703393,g
-12.114196304003976,-8.020873031491666,-9.377967874789466,-6.883166702851836,-7.591869880502093,-6.745369673275611,-8.206770752024942,10.094895749594652,g
-11.368081630353252,-7.441800329506063,-8.484165395262625,-6.051015918306061,-6.915949111757949,-6.600046445304986,-7.53377351021301,10.339980093996369,g
-10.610334789462955,-6.725730218125922,-7.569901162335631,-5.210834960852074,-6.2780543475338035,-6.661627240248755,-6.904720141531671,10.280412179391352,g
-9.789750497709022,-5.886300987401065,-6.5960299652562355,-4.33582963718016,-5.642685850334256,-6.837466431172388,-6.300582317257796,10.013187612595242,g
-7.898805478265603,-3.8938278693692103,-4.27087408658115,-2.418518426084517,-4.234110781080155,-6.942353828611114,-4.988932915076999,9.493103572540694,g
-6.919581600673214,-2.8482753595868537,-2.9814733320271163,-1.5072210867431715,-3.5097703870269363,-6.833351402760718,-4.282347599554076,9.343306685908711,g
-6.006668311410452,-1.8948924838249313,-1.7419374567214099,-0.7658362531148752,-2.8365774883458235,-6.750762640809374,-3.5898938743266307,9.177774584571374,g
-6.006668311410451,-1.8948924838249313,-1.7419374567214103,-0.7658362531148752,-2.8365774883458235,-6.750762640809374,-3.5898938743266315,9.177774584571374,g
-5.17126990163089,-1.0629804142022927,-0.6176166004970316,-0.21996239485638086,-2.2002391327229325,-6.713862780386708,-2.9110251552113544,9.005090175854065,g
-4.3694430704267315,-0.2805481816344098,0.4071907226178307,0.19807377810344828,-1.536346795031394,-6.584614065215521,-2.2087505947195343,8.965392093192975,g
-3.5649468508973228,0.5579948809269016,1.3845942413015428,0.5765320005499193,-0.8006700729966865,-6.1571865715135115,-1.4617358351138585,9.209514331522344,g
-2.8020369363318176,1.4858408814528314,2.319555002845514,0.927484044178075,-0.02372876507678754,-5.289830512272024,-0.7009184808085349,9.773004641000501,g
-2.2128467019494478,2.402131936384873,3.1252335179337623,1.1543019824367522,0.6987958570482522,-3.9710073069124947,0.001780444565523709,10.564113162580727,g
-1.9341801775295901,3.09362533999495,3.6614633900063085,1.122862105040611,1.2627868139185898,-2.3173617869972376,0.570201479229986,11.425374653207248,g
-1.992756956536128,3.344257405354754,3.8294090127354665,0.7866550576529663,1.612829315810023,-0.5389692422619061,0.9575020311083259,12.199372191832891,g
-2.2547576123354167,3.093989216142094,3.6477969512097532,0.25822421240005833,1.7647474396257052,1.1261910635689478,1.1653841482678537,12.795371201898064,g
-2.4832733009964594,2.535819315290665,3.252272222139392,-0.24297901502759228,1.7830289634560317,2.4963730334029286,1.2389860823654593,13.237753485882573,g
-2.457149327656943,2.032827153366507,2.8226698131124635,-0.5244930004610678,1.731881318027344,3.4919238079879484,1.234498627204229,13.631869294353459,g
-2.065507057168933,1.875751254070574,2.495019812865067,-0.5200905831937747,1.6411365420686537,4.111103096657287,1.1857338135633237,14.059971787131001,g
-1.3301649052729494,2.0692317087381764,2.314223510550647,-0.28144834866837715,1.5128186686685643,4.379660033042165,1.1011928376716633,14.523615198722904,g
-0.3694851405648006,2.3308300755604443,2.2426108391773183,0.10161440737688046,1.3468309225212862,4.325466545019891,0.9818883373305797,14.98377925675879,g
0.6568006203084549,2.3026554326997166,2.2036855375883326,0.5630707611251877,1.1468184221817548,3.972407013005644,0.8251451043006549,15.406916635668727,g
1.5948657237683044,1.8070313319818072,2.1328973273897573,1.0606128474265297,0.9074764653532235,3.339355272718572,0.615910826002101,15.747675032817464,g
2.3283964033067788,0.9672063824922918,2.0148118074837607,1.542891444234645,0.6190032255961058,2.468684867092665,0.3404856096506889,15.9386979919625,g
2.794328038263535,0.12163585246843811,1.8917474974129216,1.9368375410952499,0.2944629868095431,1.4818192028623909,0.02062052323012088,15.950616967241476,g
2.983443574138068,-0.409432364736508,1.8378211170799823,2.175273188965772,-0.02095300827624169,0.583747797325609,-0.28343808395306597,15.83699385097872,g
2.927120989542429,-0.5470008191242457,1.9115491949149956,2.2405113386359057,-0.2831210142030848,-0.03501471342608546,-0.5215360714847238,15.667562633409144,g
2.6732300577820567,-0.4984744901384312,2.11627904144244,2.181079250350156,-0.4895589141617055,-0.31787699061671504,-0.7006579499362191,15.423927402156526,g
2.2598762330968585,-0.5848980576449824,2.3930401294260415,2.0773450871361083,-0.6797645746855034,-0.35626626555033447,-0.8743446362541215,15.001523597850593,g
1.701998892858366,-0.9918690082559225,2.6490109683946423,1.9758008672567775,-0.8967379886825615,-0.29153529614621443,-1.089645640208397,14.313442079490803,g
1.000537929854658,-1.6432773447721651,2.805129443828871,1.8481988613828946,-1.1474169814057822,-0.21105353317783532,-1.3457104789671963,13.370881217766547,g
0.16628057395352647,-2.274845376043241,2.837335508297561,1.621802626448136,-1.3865842661772958,-0.11281184053389441,-1.5866243813385654,12.28819502562001,g
-0.7603558519688607,-2.623645966482205,2.786914679670574,1.2656841858951515,-1.528179148967316,0.06852515324950414,-1.720442743477242,11.254756180637992,g
-1.7054319231310964,-2.594412108253221,2.729564509133379,0.8571971885569016,-1.4847983672324852,0.3951707001952215,-1.6614728450729757,10.480952132236542,g
-2.5751117476214063,-2.306731928259997,2.7196853831104755,0.5585779119057597,-1.2211111991983001,0.8447791927232778,-1.3839458268216955,10.101256811733844,g
-3.286657892271595,-2.0006997065840015,2.74780874255802,0.5111708236313074,-0.7794166890012293,1.2897464664995084,-0.9430752556903069,10.11013898219932,g
-3.809917918479633,-1.8628817318723558,2.7428145195504237,0.7326874439942063,-0.2478771123401807,1.6004773009692115,-0.432757624917617,10.433653611813542,g
-4.192420622533343,-1.9012901967434512,2.6187020005478723,1.1050266462150433,0.2995211533108148,1.7967948895034105,0.08149784358865834,11.07261194958201,g
-4.5337223125152875,-1.9676395610517374,2.334735575732809,1.4637140633060672,0.8322043491951282,2.0771440301596447,0.5854188951265957,12.124847036816819,g
-4.907706099420663,-1.8932100440752577,1.9291379479834956,1.7139733887394322,1.3427637135602448,2.6689611700349394,1.0821460186105598,13.63711469338234,g
-5.285210435164101,-1.6100863566753627,1.5006322419814182,1.876423577205824,1.8089582954454646,3.6346528279684476,1.548534059258087,13.16162080007652,g
-5.525877014214123,-1.175881820947977,1.1431461746222504,2.0270774694332476,2.1693922850435916,4.797109588181518,1.916136489702908,12.714499464142206,g
-5.459177583827289,-0.7232311395198989,0.8772244630757063,2.1920131555682327,2.322725443223859,5.822107352449474,2.077356184824805,14.160764948117365,g
-5.001299777417214,-0.38734767638175904,0.6361551327988944,2.2991766755417817,2.159071682320024,6.39342734256218,1.9203848379063164,14.984578214680672,g
-4.223188616159753,-0.24179550977777753,0.3256662562974725,2.2325664923037256,1.6228774552096596,6.389834166117629,1.3945330249664114,15.113637794871423,g
-3.316597574238891,-0.26882530267627025,-0.08925143962784617,1.9348359470536636,0.7669754141579224,5.954576575250519,0.5634800525404449,14.661132778594103,g
-2.471248616052235,-0.38311740279674245,-0.5386555771407804,1.4666550004936973,-0.25433557194158296,5.378106976553895,-0.410931966681171,13.824373266714733,g
-1.7411240206079994,-0.4775126540472133,-0.8699678900097252,0.9820180759550678,-1.2482764095049452,4.867261637216888,-1.3431851710919045,12.737468197517535,g
-1.0044920664535668,-0.43782242973444047,-0.91599664403558,0.6492650609618644,-2.042091463976179,4.415684781268169,-2.0814496928106827,11.4365228003027,g
1.136768500376902,0.5056579918750937,0.14298490654953425,0.7668328797430959,-2.5332396082476625,3.311986442685863,-2.5425564303546917,10.923166979353528,g
2.457938898693876,1.4679674939871181,1.0933219610345641,1.1589286157351757,-2.1065401676235807,2.809140685569377,-2.138394824699249,12.213698797330238,g
3.5574232901236655,2.5676896836582905,2.076239026725067,1.6499250001664323,-1.2750779936438394,2.6584476986823944,-1.3412002219308217,11.851835467859683,g
3.5574232901236655,2.567689683658291,2.0762390267250677,1.6499250001664323,-1.2750779936438394,2.6584476986823944,-1.3412002219308217,11.851835467859683,g
4.108773733578692,3.565506528702811,2.9142413305922026,2.1406193348203217,-0.17914553278080972,3.0293494478944987,-0.28348358003231544,12.084494320201719,g
3.9759666317410556,4.2894791204965514,3.5097808332434703,2.543052530054537,0.9803419285272277,3.864051034781108,0.8370803478034435,12.708513614492833,g
3.26607337745497,4.690302345124999,3.8408796547298514,2.784873206219216,1.9866130377956268,4.8642131630755845,1.801379790878729,13.453444110763906,g
2.229946012656882,4.80847747406346,3.917480541966639,2.8214558883841514,2.6648509636678996,5.614472744448232,2.4290553685260226,14.103133401816944,g
1.093309117275735,4.714741089832152,3.7421058834284593,2.642432799945661,2.9336557906761582,5.792666835220562,2.6374863456820536,14.578615422718826,g
-0.04800735885429388,4.46803530995741,3.30981110125434,2.2643257738547637,2.8180997614455454,5.32870272397944,2.4595099343774023,14.92897814219848,g
-1.186862550572282,4.100986939230067,2.653271747443827,1.7295524397608237,2.418689225509178,4.387380094802163,2.0077954176654313,15.212794153300923,g
-2.270635814417065,3.6410346911259004,1.895725283268058,1.1255234323619128,1.8701579364502348,3.2099531117549716,1.4269863017728681,15.388498079006553,g
-3.1227949090673155,3.1543241436912277,1.2479743795908476,0.5945103461644907,1.3173200393362967,1.9757599004553597,0.8696271688922634,15.36144295290257,g
-3.5154635339171194,2.754184688979734,0.919981636020801,0.2944761032697212,0.8944871207621485,0.7824248562562175,0.4766316019997724,15.143571992978394,g
-3.3336202215575073,2.5375069401061023,0.9999720807190009,0.3210607838252453,0.6907411276347155,-0.29835156050558675,0.3350501419067252,14.918889624330593,g
-2.6789464303168926,2.5109004640008505,1.4003705630776935,0.6498580872924304,0.7233618096024503,-1.1639935446316523,0.44285227467515875,14.92347053807726,g
-1.8198692367118532,2.602076714682894,1.9197924388945158,1.1451522547253383,0.9528266721577303,-1.647044274990499,0.730707136429042,15.2758327843013,g
-1.0328902970993183,2.7441449753502263,2.368111815851421,1.6255683190912873,1.324917601301856,-1.5299367896164804,1.1250013390193672,15.91519061126741,g
-0.4675470696879739,2.9150565491603317,2.6492923554392673,1.9377720231113613,1.7874831564656133,-0.6549200892530749,1.5785330679388232,16.649445547684717,g
-0.13859995656384488,3.071496676068938,2.7415362735139195,1.9924717762793265,2.261018922847849,0.9085364171361459,2.034252730485868,17.242750863640403,g
-0.033975403302742714,3.0643236498152175,2.6107014648399387,1.750673984195848,2.6025815070304126,2.794104093651496,2.369745651337868,17.517555344253125,g
-0.21692561483585265,2.664769832052486,2.156560250112392,1.1904419074358044,2.6175380323947914,4.477876821796826,2.3929792587531127,17.43738277330324,g
-0.7993425989408378,1.7212528747547478,1.265930879003445,0.3035062411307924,2.1350805026862183,5.543422287879023,1.914611266963861,17.087093849166287,g
-1.7964424772965812,0.3326194089382451,-0.05789139710083306,-0.8633701011160693,1.1114801285761007,5.873684176613915,0.8641892729657675,16.544957272956754,g
-3.0194976227236396,-1.1204661560749805,-1.6162556902825276,-2.1723272195632113,-0.3109638645473997,5.6465407543081,-0.6262822968112686,15.787359092667014,g
-4.148813512900961,-2.1689400600691244,-3.0927540829504268,-3.4288644862780986,-1.8550420064278974,5.157560312166611,-2.2561152794500154,14.73905872309478,g
-4.9440742793307395,-2.5829592388453952,-4.247313054233915,-4.479771777089641,-3.2608539083725474,4.588545129726254,-3.7190179709315307,13.39119236733045,g
-5.395487576326871,-2.5790697229919597,-5.057156810324939,-5.285759741325634,-4.428140805277939,3.87940391064365,-4.879785491543891,11.841437289891099,g
-5.673803119472713,-2.68379827270124,-5.67134851889827,-5.894697749624898,-5.422796903736667,2.821677738888302,-5.806818913653611,10.24783539355081,g
-5.935974685891192,-3.3111460513000837,-6.222516225746844,-6.343842777874485,-6.341709648147129,1.3238939823298825,-6.630819085648376,8.782860240249912,g
-6.173709260769522,-4.400953365674049,-6.675483769152582,-6.593281801818674,-7.16916604611289,-0.3881114589370146,-7.3728773510140755,7.599206574903556,g
-6.242172302167563,-5.44676370879192,-6.854977258995582,-6.559233948256207,-7.7622661685290195,-1.8458417429429743,-7.906606716806833,6.765559174912124,g
-6.043481033882991,-5.905643221669357,-6.630142180244976,-6.21790329509995,-7.973154280761605,-2.6369635963585187,-8.076571720361812,6.219086671784167,g
-5.702246843126966,-5.65388547864656,-6.09476005808521,-5.685280200678498,-7.794878229836458,-2.6679483703570033,-7.85651625434831,5.82528124309224,g
-5.560290017956964,-5.122987667413615,-5.578379370542699,-5.194076794930326,-7.4079279595318965,-2.1926891253753213,-7.414779831138764,5.506432187239585,g
-5.956676169393119,-5.004596453302108,-5.454014120404144,-4.966341297477603,-7.084972842440541,-1.6244140277010224,-7.032107079199024,5.2961316593348595,g
-6.954780201563713,-5.732499051821852,-5.877856424407915,-5.066344290479281,-7.013963077902349,-1.2797807239152825,-6.919877533658989,5.279057420205181,g
-8.254755855864412,-7.126454853807658,-6.67205332974987,-5.350744396594374,-7.170486058522482,-1.2094400351108767,-7.071656585757465,5.516111876886021,g
-9.3895610150067,-8.494956719561461,-7.463177491637299,-5.571706376674846,-7.354612191232945,-1.2231123454592094,-7.284233390427326,6.017988505376312,g
-10.058367486407786,-9.154916875077172,-7.979749358446421,-5.566847738693467,-7.383132697761812,-1.1103205259074476,-7.355978351337771,6.723960514303812,g
-10.331048647302024,-8.96858058575312,-8.27106350758849,-5.390653509551308,-7.282546172562187,-0.891410084974434,-7.298135791962645,7.473472982803689,g
-10.567002971447359,-8.45499960480814,-8.66806456161991,-5.282624358233951,-7.310246099340214,-0.8687224171802118,-7.363719566941198,8.042490967765055,g
-11.118468689072825,-8.383191580612678,-9.514766624041442,-5.494654671421158,-7.7754300856427765,-1.4155691736849592,-7.860910112092711,8.257432186210494,g
-12.041792906189155,-9.179270867041586,-10.876668438889112,-6.104954702453357,-8.7988286436002,-2.6855541280980826,-8.905612079075588,8.078896373927131,g
-13.02533619547648,-10.60368251237821,-12.445916316949527,-6.951163955253234,-10.191169746173596,-4.475788795798539,-10.30264325685999,7.584139727998286,g
-13.592133250759044,-11.922617840495146,-13.717924268218416,-7.7289161379854265,-11.536093466749369,-6.316955830032529,-11.634046983201252,6.913545655982387,g
-12.708354617198122,-11.988048114982153,-14.24936515063474,-8.286299743979166,-12.696520231464715,-8.33863932521201,-12.729027201904369,5.759807329192336,g
-11.877891096695176,-11.051566846376847,-13.857760747959428,-8.201751521721615,-12.497751595693668,-8.246209324375494,-12.492998974191375,5.530312496467665,g
-11.499197824519541,-10.35087908798345,-13.561745971444694,-8.183558666124961,-12.134666418272033,-7.693105927689683,-12.098261450214151,5.484586275431371,g
-11.499197824519541,-10.35087908798345,-13.561745971444694,-8.18355866612496,-12.134666418272033,-7.693105927689683,-12.098261450214151,5.48458627543137,g
-11.802354674991275,-10.283418468159336,-13.525040500719381,-8.362803902143156,-11.80006430828725,-6.938534418994171,-11.7359604998008,5.4930903538736064,g
-12.553497289602772,-10.64084273046773,-13.536487290673424,-8.64513019760356,-11.410575440658144,-6.03358607259409,-11.315861504219885,5.52924617578492,g
-13.2237039622456,-10.828902185330161,-13.176228295353491,-8.761156570350126,-10.678703140132786,-4.841348450659733,-10.548269879626465,5.714432742086393,g
-13.351696634040968,-10.359847036557499,-12.138251690456736,-8.444744698291625,-9.357609162510192,-3.23816146627086,-9.193316382660566,6.2024414464126245,g
-12.846763924307368,-9.19614418467207,-10.47175270576382,-7.6248084754452945,-7.466849621515792,-1.2963462346388617,-7.279258715041488,7.016379497268336,g
-12.022015684709839,-7.714301086380594,-8.573460452001171,-6.499343962374202,-5.338623487694749,0.6909427143877702,-5.140377655999804,7.953943325139377,g
-11.33959175918884,-6.391337445944152,-6.947200769637604,-5.434690719788188,-3.460858076871817,2.328375308826643,-3.26148278497498,8.611064530514804,g
-11.062984126622222,-5.492421063565642,-5.910638340749772,-4.756860702193082,-2.225654746586301,3.2963045228370333,-2.0310039637355985,8.544961155090196,g
-11.08188335155414,-4.973886387791052,-5.454106352458337,-4.577648533902017,-1.7453247277658739,3.5036936645187375,-1.5546099322360671,7.526963547983033,g
-11.031903967502078,-4.622067505544008,-5.327985532576837,-4.76290283651055,-1.848218136576841,3.127905428150852,-1.6472741479757693,5.705045720390468,g
-10.592295424966084,-4.275395829738143,-5.262453468837554,-5.04350912444194,-2.2396965820876846,2.4932959868589664,-2.0013780331842232,3.5057708111932877,g
-9.719821510402772,-3.9389569992199727,-5.148202043617142,-5.185247410416671,-2.699762329875395,1.8667705906876475,-2.3985071361051147,1.3425976795568677,g
-8.661583107293982,-3.7267579046046726,-5.071928292227835,-5.118767129535941,-3.1821054299854943,1.3321399446568414,-2.813054768721416,-0.6042893782146738,g
-7.7782441569606835,-3.7395910765346962,-5.221020794656573,-4.9637249147073925,-3.7747630970795476,0.8204383373761072,-3.361827773666459,-2.3707520571394824,g
-7.328803548346142,-4.017704678682589,-5.74084369755653,-4.932684509589815,-4.579134371646361,0.2246799573675024,-4.166898152198447,-4.03739292072724,g
-7.3534304801414665,-4.5728061754385205,-6.625310724799346,-5.166607978815129,-5.591603697546832,-0.5025031446154368,-5.2270771324500345,-5.5770115344878795,g
-7.700489569898624,-5.3993649815514155,-7.6936601930639785,-5.61276073382402,-6.654330344266503,-1.3016652802504722,-6.368027540240985,-6.808317335026816,g
-8.1530488733066,-6.429235335627072,-8.671981639140679,-6.045818617130445,-7.51134563730303,-2.016636818278431,-7.308321386906561,-7.472746849535461,g
-8.557351943879606,-7.501694406001778,-9.339202326677457,-6.227475346238678,-7.946674184737485,-2.4765198050530906,-7.815225479053858,-7.414073460233095,g
-8.867738165221024,-8.401251664231745,-9.639718368165749,-6.0807491606717505,-7.9076208519103375,-2.6078826177776384,-7.839249734739605,-6.744085615542238,g
-9.101112650353178,-8.926879039754542,-9.680249382310539,-5.742174382805802,-7.514609627221839,-2.472294171700649,-7.5148508561323055,-5.82420036259428,g
-9.272369862244151,-8.95433878087137,-9.624290351253347,-5.4612169212397585,-6.960688721594238,-2.1917677829266586,-7.038263985501217,-5.048155645418137,g
-9.376613166792698,-8.502356518506774,-9.577723164275824,-5.433091799440128,-6.400253797208893,-1.8580203782105833,-6.546974717208792,-4.631498287448308,g
-9.408265662774019,-7.775631322744696,-9.543580019720057,-5.682033460344985,-5.906681932030806,-1.520695546732006,-6.090864784919929,-4.5906806758148075,g
-9.364264216863287,-7.089815597174311,-9.450984632191231,-6.061488108813359,-5.490085798818219,-1.221662806552392,-5.668908041089852,-4.856531365193303,g
-9.219389252271053,-6.664105764525357,-9.220202073846577,-6.361256384082759,-5.132197598095102,-0.998857347920679,-5.2682990772660885,-5.3565234371199235,g
-8.91933893011192,-6.448781940744479,-8.828735305233444,-6.447513013327859,-4.825564150314016,-0.8752806336146574,-4.894437927232481,-6.027295284670769,g
-8.429974298541861,-6.178916902427486,-8.351870886237977,-6.339967116065036,-4.613791055133296,-0.8900054065916555,-4.602270093155077,-6.824783412744885,g
-7.8188634408733195,-5.636242498932601,-7.955322219316893,-6.179244930527605,-4.6031673920129155,-1.138987940216797,-4.505679778307917,-7.736509139129763,g
-7.296300069734019,-4.893540095651534,-7.837539674127401,-6.127817119824634,-4.920176363443016,-1.7421384180626494,-4.737656931782302,-8.748467339340923,g
-7.153590217456676,-4.327365623463986,-8.146601246863627,-6.290117249445715,-5.636245817037166,-2.7449096044704886,-5.380523549910122,-9.796232229674931,g
-7.607842884442941,-4.372863671121761,-8.906714829371754,-6.6908069252777524,-6.707343350835934,-4.052030553207134,-6.408778831425446,-10.771988120722426,g
-8.651318882084372,-5.188748939145013,-9.985858970931215,-7.283899527832423,-7.958577935875833,-5.443572188648503,-7.665956146690509,-11.564086657338795,g
-10.02767564193266,-6.48322842388689,-11.12971087970516,-7.961028790730391,-9.1236995148269,-6.6380562375024486,-8.886932082864108,-12.052454760517046,g
-11.369097977602134,-7.660516004914281,-12.061310556420667,-8.566671366658968,-9.936729032040896,-7.371627373339331,-9.780976783587153,-12.088149695652517,g
-12.396445463836228,-8.201826415891965,-12.596840313363623,-8.939550803675484,-10.238515640447858,-7.491346249561748,-10.151875566635466,-11.554495127689247,g
-14.331339753046572,-19.48828812241944,-12.830417777251238,-7.543179712267983,-12.626199500633522,-13.307087608042101,-12.658454988413078,-9.075849510241998,g
-14.85038835907477,-20.086379255463562,-13.377487585671156,-8.4649436978379,-13.05543727408965,-13.669249051418191,-13.101744836686077,-9.636642481512405,g
-14.66391648376884,-19.49853915278571,-13.119127220729386,-8.785265130327938,-12.719288936915422,-13.372994647849433,-12.791420085141112,-9.746036271336356,g
-14.179697937502988,-18.36515734954942,-12.390965199098803,-8.76422354489983,-11.939141385911785,-12.611473421609459,-12.013468898172949,-9.543268349143911,g
-13.927891630781849,-17.432700417703877,-11.631069305694144,-8.738189980593772,-11.117504854808255,-11.642394011613458,-11.156653917093546,-9.207229712925718,g
-14.205739955769918,-17.0879479849424,-11.090059797335474,-8.850101315991827,-10.490441000843067,-10.678919306325737,-10.476093854753183,-8.842335845236434,g
-14.912594083338528,-17.158202586848127,-10.707284592299871,-8.960960862960764,-10.020616680122117,-9.807751701101278,-9.967883101511868,-8.419541829766295,g
-15.67255465365223,-17.106187792691003,-10.220717686592678,-8.79102966384124,-9.490804107898885,-8.974333718179157,-9.43380203282467,-7.822949705842906,g
-16.12043065832692,-16.47440361952597,-9.404168432145884,-8.154539776586375,-8.713361907482337,-8.068252335274671,-8.678065698920355,-6.993786309699196,g
-16.129875552515237,-15.237440293014036,-8.247366795147743,-7.098495913579606,-7.690856369616341,-7.048828000855998,-7.677618510587304,-6.036946678779303,g
-15.84997554695639,-13.810002293284702,-6.969921557619992,-5.86918825791238,-6.625545396231159,-6.009140214278058,-6.611928427807814,-5.173530996134609,g
-15.57947482813712,-12.760053205488221,-5.9010664787240925,-4.779196008393434,-5.810183788501499,-5.155137565512588,-5.770970391362981,-4.607061774182879,g
-15.59832256559714,-12.47669162000199,-5.3288434865416745,-4.088508942992942,-5.495207056106348,-4.740333762862086,-5.426143978113606,-4.451550161575033,g
-16.05299320014852,-12.989822072860964,-5.3940777798722,-3.9452515460274817,-5.7906609078963225,-4.965615541908905,-5.7176152770898305,-4.735049552226295,g
-16.923796718567814,-13.991129511273389,-6.052533362556378,-4.3657786591971846,-6.62221744014534,-5.849053861180389,-6.586853544448251,-5.389075845234313,g
-18.060050079511342,-15.023840741036992,-7.107874739320136,-5.236993553654901,-7.762485151201274,-7.155309183538122,-7.797248744372595,-6.22855748375624,g
-19.256337229583224,-15.749579874506875,-8.302463336693625,-6.351799396518634,-8.937045374994646,-8.488502502979578,-9.052673095225405,-7.012682557981657,g
-20.33289288823655,-16.122186157253903,-9.417060600859175,-7.478704967693295,-9.937623158239024,-9.49790954414787,-10.130503954654138,-7.565324716341081,g
-21.178310026911312,-16.32565742779486,-10.315221842955298,-8.430917399906487,-10.65425054344163,-10.014210895248016,-10.918507197295773,-7.814037658549545,g
-21.73637145461374,-16.533095460722446,-10.914379929059807,-9.09360729614178,-11.018602460389985,-10.022224650929605,-11.347156734476679,-7.709162276559636,g
-21.961048948044827,-16.715220760307005,-11.131735080844713,-9.401935529496376,-10.93909245139211,-9.556557027160805,-11.31568451589106,-7.155356298782323,g
-21.783977680544375,-16.65319519031889,-10.865476379436142,-9.29946656223159,-10.298282746261973,-8.635642639407711,-10.692470241945024,-6.053231606307614,g
-21.12080454637165,-16.09275343513133,-10.027200530864027,-8.717752780031036,-9.00844738144003,-7.249526469177608,-9.379926638335808,-4.386976980836615,g
-19.911202397515858,-14.884630043715058,-8.596978600057847,-7.601382380610131,-7.079411462627993,-5.37786610687528,-7.390540774665579,-2.267749966034235,g
-18.168356088889773,-13.039381671133583,-6.661682670366444,-5.965949761880969,-4.657905375668346,-3.045996600941634,-4.890350000933138,0.06460773528090442,g
-16.011731387719642,-10.71431813328087,-4.411213788823327,-3.940824332278493,-2.0100104453744954,-0.39826356878256686,-2.1764779594319825,2.2724612206001007,g
-13.666465693850762,-8.16458929960453,-2.094428051741486,-1.752077077111938,0.556001228542667,2.2924325733976967,0.41720105037543076,4.027028888645954,g
-11.427411255661015,-5.690089965916232,0.0357937256357058,0.3486169186290436,2.7792762138814946,4.71153030588931,2.627987839784545,5.1624526055227875,g
-9.597540342270715,-3.605649131883447,1.7575360419677015,2.1561202569957816,4.484359056297487,6.604007044261569,4.302696182322782,5.7279305259173805,g
-8.416814425864136,-2.211690241660919,2.895796660488935,3.539425778738,5.562332400269683,7.806989207458505,5.358666558229724,5.862701280611029,g
-8.003759201609089,-1.7098470855770422,3.3449262606660204,4.427547193035734,5.95395056218996,8.240465514167905,5.746236552526243,5.634934989831372,g
-9.26604513424958,-3.1066971367321505,2.300367537822396,4.651121621841347,4.831773543795664,6.951613466834287,4.622927755742563,4.039284154026194,g
-10.596035682714106,-4.437678289491954,1.1538350274673235,4.1013046319800255,3.6339289776251484,5.525703427124448,3.4019422983200522,2.796051673018737,g
-12.110785908594462,-5.8566693925574995,-0.09063455854541358,3.316000013042758,2.3119333994929283,3.828872389461665,2.04591198233949,1.5202291998152293,g
-12.110785908594462,-5.8566693925575,-0.0906345585454135,3.316000013042758,2.3119333994929283,3.8288723894616643,2.04591198233949,1.5202291998152293,g
-13.61104358053897,-7.286668555666603,-1.2425429302673148,2.5048987024031546,1.0706230632591882,2.0393515487070353,0.780989674870298,0.4747910050101451,g
-14.902870886289449,-8.684964872245562,-2.1953091624458145,1.8384012898078765,0.049315284673802307,0.32692226022625004,-0.23274052300043557,-0.135426809061117,g
-15.780913982321014,-9.919475923604432,-2.8978083764453006,1.3950618316176135,-0.6859467245469303,-1.1738360228840814,-0.9272610321921,-0.26643205104225465,g
-16.044839893633473,-10.770967916469694,-3.3048824319383776,1.1668942902713575,-1.123017380335154,-2.4032636248841253,-1.3106748880113674,-0.05776685553270648,g
-15.569463413170524,-11.054099196664296,-3.3634030154239176,1.1076253828925726,-1.2747696739085748,-3.3685404567927235,-1.4211218398966465,0.28789217701413944,g
-14.39137099512906,-10.749182794733326,-3.0532038637385934,1.1812423332481623,-1.1699442947518848,-4.097490072611423,-1.2981312955391386,0.6651036504734231,g
-12.736080019622744,-10.036382035495915,-2.44113108655896,1.3796619802900552,-0.8694680232170505,-4.622314092825784,-0.9972597740953951,1.089489459171142,g
-10.94242291468511,-9.190665780274259,-1.6853773841609123,1.704104412532736,-0.47490415780883233,-4.99831463513496,-0.6106959464147321,1.5777194437850746,g
-9.320712095575507,-8.40378489088522,-0.9707388693344079,2.1278955204019416,-0.0998778932508297,-5.292806756460173,-0.24609357540445087,2.0563823805489387,g
-8.034094007576291,-7.688895239395063,-0.4213543751566878,2.575011624364594,0.17528570122871803,-5.534362142724355,0.02163160520604266,2.4048540201098687,g
-7.077618164385474,-6.973592221639843,-0.062362839372727574,2.941078043652387,0.31968892887268063,-5.697384340378955,0.16920046936476746,2.550190125667867,g
-6.364578500462109,-6.29039957327,0.13744512571079773,3.1422819718723805,0.326168450470107,-5.75763162660194,0.19603170196852035,2.502839911812827,g
-5.858437455246351,-5.846050242629188,0.17778421748012602,3.1406778929752215,0.17358624790887797,-5.7528889428611425,0.08228789331455617,2.3299252443512044,g
-5.65672411111961,-5.881099072392212,-0.03336241279992079,2.9126793320847915,-0.19373909330086783,-5.784552053489919,-0.23317316741464683,2.101915757490299,g
-5.967284102896292,-6.478333572779638,-0.66179242962445,2.3917224346331123,-0.8620498218198053,-5.979615383679035,-0.8488380770124067,1.8199892564971372,g
-6.994163766727094,-7.529255865602055,-1.858528936364711,1.4565501110616572,-1.9157809157143064,-6.4509218145687015,-1.8647870453889617,1.372884778613456,g
-8.808582708464746,-8.87259580385617,-3.657960594052079,0.0024353760539042035,-3.3775097925920585,-7.248831343063995,-3.312928353449304,0.6160414580444671,g
-11.281934848811549,-10.440052846327484,-5.931640946473569,-1.9499369686399715,-5.1547181568633516,-8.312529455781988,-5.095221735759719,-0.4536820579040384,g
-14.117943378256644,-12.270954475822093,-8.432539169169367,-4.204461804982252,-7.049412042058615,-9.484355302312144,-6.998230092259528,-1.6198917346866704,g
-13.840885239404335,-14.400019147237362,-10.901646869931866,-6.459250746407401,-8.841761624749994,-10.608953060277317,-8.79235673647065,-2.587321912361298,g
-13.226472988899738,-16.723440819308532,-13.164063040141007,-8.459720310716834,-10.387009433113436,-11.626037750764173,-10.337157064238024,-3.2056398342259813,g
-12.440135729235955,-18.96527977468648,-15.156245407434648,-10.124929768952622,-11.654358897410845,-12.56071537095483,-11.612829803835691,-3.550758861414761,g
-14.555096509645926,-20.798814179927582,-16.88343019580244,-11.549372098708185,-12.692632743822253,-13.440875551809134,-12.674049440018221,-3.8236496093949697,g
-16.57731343766455,-22.037794144710826,-18.349572557506026,-12.87368893823351,-13.557461252952345,-14.241461877149456,-13.573434994955004,-4.20050517463194,g
-18.492204740976284,-22.718636017719838,-19.50608427075688,-14.122139115898372,-14.246175741387557,-14.887836213095298,-14.298931960254802,-4.736805430037921,g
-20.103619496471875,-22.98741128410218,-20.249245108894534,-15.14168915935922,-14.68358138983929,-15.283496619219733,-14.762435438479724,-5.344152033466923,g
-21.126125241226166,-22.91321390961995,-20.472963944378435,-15.705399525857874,-14.781895368864355,-15.353119626291072,-14.865133591781898,-5.8592369113417675,g
-21.36376026714006,-22.426895135111632,-20.149730194584695,-15.705495978258956,-14.539307621954427,-15.108532906611027,-14.604996971415279,-6.193565599541077,g
-20.84744887863691,-21.439475453678003,-19.38366591470837,-15.275182658168509,-14.08759668347611,-14.685623054237507,-14.12725984142181,-6.43562691536702,g
-22.957141717242976,-20.006671343354064,-18.388059815148928,-14.728755382244264,-13.629651407019105,-14.28181923648874,-13.65178465623256,-6.773001080891643,g
-24.981955952862087,-18.37201163769681,-17.388595370135363,-14.358451353470993,-13.309016070761515,-14.02549098348035,-13.32925197697883,-7.3016185566279095,g
-26.880851133560657,-16.84176563984023,-16.507624598064957,-14.243919783963259,-13.116314074654582,-13.896314161013205,-13.145435614316394,-7.93254218276588,g
-25.658012438239894,-15.594108414201798,-15.707241879581513,-14.220091236584375,-12.901744111801406,-13.75813271954793,-12.941739958602238,-8.476283869526894,g
-24.299512520603745,-14.586284395018662,-14.838935134391324,-14.024091325215753,-12.480058868991641,-13.453688192266696,-12.526870929971459,-8.776629800652284,g
-22.752793211320146,-13.639730108130161,-13.769685557266467,-13.499519436794092,-11.754240502290427,-12.889233149854737,-11.802431865770501,-8.767095127081564,g
-21.116846264523048,-12.610947395915618,-12.484126010328971,-12.691772221150085,-10.770618412715871,-12.076618440313084,-10.819398605747711,-8.461484964293627,g
-19.555437476296056,-11.475120817385235,-11.080100238649738,-11.76829373926805,-9.662552955705655,-11.109655068261233,-9.72061465112642,-7.9248765677956525,g
-18.150332371464863,-10.27156644592183,-9.680865748082166,-10.859036506626612,-8.534641947045262,-10.071686800192245,-8.616422832513582,-7.221037384770396,g
-16.864411090910565,-9.037757755578017,-8.367588056827795,-9.977268938154012,-7.405571200879192,-8.95503441179569,-7.5188583504119935,-6.362705337790103,g
-15.65360339853611,-7.8477707919314925,-7.195700542821449,-9.083974231142044,-6.271872712870669,-7.703474764581936,-6.410172111996992,-5.3437360343780425,g
-14.600679937762532,-6.884801274590975,-6.250465648042002,-8.208410289354156,-5.215868910023236,-6.355285193923945,-5.366094220172131,-4.24075089832714,g
-13.923884211148362,-6.3918848860538375,-5.653180939242253,-7.490169691515087,-4.42199734691245,-5.115208405499582,-4.578787079667339,-3.240367378419582,g
-14.403999394862586,-7.092637289182385,-5.745168459250808,-7.0972012501363535,-4.171300015767264,-3.876234101620119,-4.360011540411492,-2.1088290777847085,g
-15.442631483212931,-7.89448773401254,-6.256821168340833,-7.395904020606283,-4.577482346582647,-3.911709761109453,-4.7812064881385865,-1.8996996455663833,g
-16.668070200365037,-8.643132931567767,-6.823998784530472,-7.804040541363226,-5.017175452838427,-4.099342891047166,-5.217441578174591,-1.7582041384198361,g
-16.668070200365037,-8.643132931567765,-6.823998784530472,-7.804040541363224,-5.017175452838428,-4.099342891047167,-5.217441578174591,-1.7582041384198361,g
-17.852172713367302,-9.266859335066192,-7.3128156307232475,-8.173989003387103,-5.274602422523119,-4.1865740428875045,-5.445816471842407,-1.6129290337385804,g
-18.93134549858462,-9.899938806163563,-7.727806361203577,-8.489215133611808,-5.302423542840833,-4.074841599074295,-5.424760847286022,-1.4663629240912455,g
-19.946539412449415,-10.732830877244883,-8.158399359798747,-8.821298764825404,-5.217073724739066,-3.882729123597758,-5.289497990512905,-1.3722342069316675,g
-20.88910966457237,-11.78188533304175,-8.638055934297014,-9.196167374901252,-5.16344120080783,-3.8486154131566908,-5.207078682766975,-1.3851899831275223,g
-21.619563633614664,-12.767965141391056,-9.050156871179393,-9.50914713820908,-5.158907899517846,-4.1130148270720275,-5.204400113799534,-1.4839088379159384,g
-21.948856922298408,-13.265761300859662,-9.189770772818854,-9.58628065324821,-5.068141144969775,-4.568713109972104,-5.135755601517789,-1.5531055653355292,g
-21.795925288811887,-13.045594908538579,-8.938028747800832,-9.337802616032567,-4.742171418564228,-4.939274682591201,-4.832866368431931,-1.4945632305948195,g
-21.25577361390309,-12.292617482640276,-8.383090602072453,-8.851718757453977,-4.186310506336675,-5.016290314569099,-4.290524677150063,-1.3637391692529885,g
-20.512952954337404,-11.471875663677285,-7.770004232242556,-8.339025930086438,-3.595521141100124,-4.825207630943202,-3.70795812185533,-1.3550748539292665,g
-19.69255754349407,-10.961730310525507,-7.327469738995449,-7.988904379316035,-3.235163669510399,-4.590524003878168,-3.361339242380017,-1.6371123821342242,g
-18.787620224741087,-10.795218717726948,-7.12320944749086,-7.861272840205227,-3.278068286844269,-4.572352760436475,-3.4302886176704384,-2.2192850932591037,g
-17.715872613049207,-10.704506402481677,-7.054590186570508,-7.8865968587762065,-3.712699210885643,-4.907890074679219,-3.900871941369393,-2.9621722399449446,g
-16.445069457927225,-10.376654725515657,-6.961162147264199,-7.946512501266564,-4.363077062987182,-5.531031526979459,-4.585042836637424,-3.6668456300706183,g
-15.076439225926539,-9.700424049998418,-6.760131976703252,-7.961371258082147,-4.997357440392646,-6.20351506402782,-5.233828832175632,-4.15727978015553,g
-13.812868466965705,-8.84281034783344,-6.500467831886509,-7.923664327553387,-5.4589246799722755,-6.661075694198027,-5.679056689464587,-4.348994340472756,g
-12.835478368190019,-8.119230255527972,-6.301330516762009,-7.866106994502464,-5.734322018587865,-6.789164439431613,-5.9106961583011755,-4.286348366050978,g
-12.196039285771288,-7.757044717140727,-6.241119527508529,-7.809418291970614,-5.917126165164818,-6.68719351161498,-6.0389438025972515,-4.089242778194182,g
-11.818249410816746,-7.746425505180042,-6.306917357335802,-7.748755496547744,-6.1184131239673665,-6.578406179740537,-6.193743209346765,-3.836970711179622,g
-11.593406890477365,-7.912736553195053,-6.445583830619152,-7.685195273939128,-6.4093607194960756,-6.669426067645231,-6.458973128553279,-3.524666636165937,g
-11.471178147832157,-8.134068903439656,-6.645124581177005,-7.647593211462629,-6.817375144334223,-7.065209519260573,-6.8666912603562436,-3.1429770804164785,g
-11.471614016521347,-8.479295866303875,-6.947164209013768,-7.6630374888199,-7.330720651903162,-7.737607512721159,-7.400241657216684,-2.7549154951257306,g
-11.631799687759266,-9.130572990667305,-7.376428134950814,-7.708068747709587,-7.8878773075006965,-8.521323035520544,-7.981583655961495,-2.4586945267032556,g
-11.947933342785479,-10.175197761849528,-7.866522122864794,-7.7081287874033055,-8.383723594516946,-9.174729538520513,-8.482929471192984,-2.3064784982813356,g
-12.356627496006947,-11.463263970759025,-8.263997178344713,-7.600464541459635,-8.716746515009946,-9.52096354009525,-8.787740715489816,-2.2972453435015945,g
-12.75971504006445,-12.647625286037954,-8.416149504316932,-7.40090514688234,-8.844454712496375,-9.566630395306005,-8.855973358200679,-2.419532426181502,g
-13.064960089194951,-13.36764770762144,-8.272017862532795,-7.20436777850921,-8.797374737557236,-9.478616720109667,-8.73508154993554,-2.650646419802327,g
-13.205630682359608,-13.441332506014565,-7.912475619354007,-7.110103779838761,-8.644368102390397,-9.44376287933189,-8.515134911907733,-2.9266293196199857,g
-13.13164419822709,-12.9382655495865,-7.48373837090505,-7.132802626206669,-8.442512450128069,-9.547038516962186,-8.26960801395045,-3.1620782397204388,g
-12.809966611057387,-12.099251414266876,-7.093086511635386,-7.177419228071981,-8.207275399653966,-9.747618269502812,-8.017982700273475,-3.302855705980467,g
-12.264350407318714,-11.179582878930963,-6.757417620290835,-7.104405285913609,-7.9200455152307345,-9.925628808368366,-7.728718800065453,-3.3296434393808054,g
-11.615418241054646,-10.330037198547238,-6.437302962455019,-6.833677673916817,-7.564282444174731,-9.950393528758225,-7.362536632685246,-3.2204381922140586,g
-11.046313366745704,-9.565656252374318,-6.102431734048752,-6.399473260368564,-7.153691227098378,-9.73911211914779,-6.920264590570817,-2.9493574329052383,g
-10.687098523520765,-8.793212548776983,-5.756167512259506,-5.91277404091833,-6.717654734229695,-9.269123141183186,-6.443044751535874,-2.5169782960967453,g
-10.511688283721341,-7.868596717770903,-5.411246939246579,-5.473557618754518,-6.2617435503359395,-8.537315717178833,-5.9658103391598,-1.9418655248338226,g
-10.348760568497118,-6.69821584133024,-5.068990098117202,-5.114720652157869,-5.766696933104098,-7.540976463724105,-5.493800886904859,-1.2306138348281537,g
-10.00919066901593,-5.368555172817592,-4.73788432085332,-4.814429602282021,-5.248237168823358,-6.346163104368618,-5.045505129268975,-0.41104436658753923,g
-9.43295183566165,-4.1952415160928025,-4.465289083399874,-4.541175680487319,-4.807526078622092,-5.1664069599968325,-4.702286043111711,0.3974527821688719,g
-8.74609638590852,-3.5863026481466656,-4.3323663261921865,-4.278175322159417,-4.5886964587911505,-4.3019097421241765,-4.576674545035918,1.0065588779368504,g
-8.185018171873752,-3.7764068624035287,-4.401788048969993,-4.016762091220386,-4.662600171962344,-3.941592012216983,-4.712643240650022,1.29178147293382,g
-7.934671009956114,-4.6384862531613695,-4.657928448798184,-3.74661875721383,-4.948483606837289,-4.0208138111593055,-5.02406646181893,1.2853681123255072,g
-7.991447530848812,-5.732877345101902,-4.990043026095007,-3.4624780954871768,-5.25322831600606,-4.286910691841912,-5.3387384154571915,1.1294794460885336,g
-8.157515819809642,-6.5651361817174605,-5.240527278409594,-3.1782451044314133,-5.399177415857105,-4.508546763904998,-5.509797346995169,0.9681217353202017,g
-7.950167724425382,-6.828116807809144,-5.170589843234281,-2.7675290712747147,-5.230054710070367,-4.887683440559401,-5.468641937875293,0.8645888662367746,g
-7.565164451559623,-6.8422073016289575,-5.004221107357795,-2.73203681989615,-5.283856110738836,-5.503195145207363,-5.586216415875872,0.7990677684072025,g
-7.287052686395239,-7.350173236791275,-4.993863590285446,-2.853898960320862,-5.692863087608284,-6.660443541871858,-6.0281689462441435,0.5167127157776077,g
-7.287052686395238,-7.350173236791275,-4.993863590285446,-2.853898960320862,-5.692863087608283,-6.660443541871858,-6.028168946244143,0.5167127157776077,g
-7.367810957010834,-8.430315037442796,-5.274674613800963,-3.151231240544761,-6.468297298906727,-8.246235005458795,-6.800148665837696,-0.07419725993208592,g
-7.908080148598836,-9.719532324604653,-5.842054631725054,-3.6275261130280883,-7.436174811461032,-9.874747559527705,-7.738805593197684,-0.891229179100433,g
-8.809449863648542,-10.642238412650801,-6.552851739474771,-4.25210178681901,-8.341207656383203,-11.08779998920434,-8.608673061904813,-1.7281498189978215,g
-9.838807764954531,-10.787356286826522,-7.204259064160969,-4.941111096549508,-8.98218961022173,-11.601574431168725,-9.224732803433145,-2.393243621186593,g
-10.763094632116843,-10.155301254004144,-7.649723446246594,-5.576444108478288,-9.29507499986212,-11.423498759481602,-9.52334352732917,-2.8027524463110116,g
-11.469757463717084,-9.124545884302513,-7.884826209146057,-6.0684817674497005,-9.358423031917086,-10.795694803917012,-9.568702680249885,-2.999437117606827,g
-11.991255171739146,-8.189883057158784,-8.039123519491344,-6.410619758555432,-9.3336847380109,-10.038271696251973,-9.508749891418642,-3.135626464343659,g
-12.423722870604012,-7.654099881453691,-8.26909044242342,-6.666397166398481,-9.365772379115482,-9.376842365566354,-9.489872351793878,-3.4052726471640695,g
-12.815566060687269,-7.476419359364376,-8.63178300056743,-6.896462738615213,-9.495902228185335,-8.830912579812743,-9.568872890718136,-3.910567530086265,g
-13.111917230905217,-7.379238034938541,-9.039602431489081,-7.095799594039491,-9.650368690484964,-8.244391706635128,-9.690826156673952,-4.567233361475601,g
-13.17275989144595,-7.110267168786953,-9.3193113695507,-7.1951288375157345,-9.712315790052159,-7.459229719280563,-9.750915938522063,-5.167630785712855,g
-12.828129115142492,-6.618199274321661,-9.308600034638065,-7.111787876911427,-9.605736452095769,-6.48563142994531,-9.670998620858374,-5.540579907391846,g
-11.946091747450081,-6.005688787447545,-8.919743333069501,-6.800751332215879,-9.324602538482278,-5.505819565338411,-9.42405415852095,-5.631519974372571,g
-10.511742940626792,-5.373843405358136,-8.161494172223382,-6.27939630781779,-8.916848259691568,-4.72878818926677,-9.025752911319481,-5.461040516467035,g
-8.687591625846702,-4.757552926108415,-7.140501637210354,-5.6274840259447085,-8.467739264056059,-4.264885604242613,-8.541432621547866,-5.0820430510390935,g
-6.790470031551145,-4.179081279630663,-6.037090965527099,-4.962864491847488,-8.082313111214305,-4.117725668525594,-8.089123071638372,-4.593564948926657,g
-5.158698753236684,-3.681439104773215,-5.035892990491009,-4.390296444475316,-7.836264521410243,-4.229794577773459,-7.783589225179261,-4.125302150426557,g
-3.982626868419756,-3.2686527084540096,-4.232071229950861,-3.9412605941562275,-7.710759859382543,-4.50023039746773,-7.639654169212169,-3.746180465013137,g
-3.227416870290031,-2.8497107431386928,-3.580449155482287,-3.5451605222163893,-7.57732342076216,-4.792903609320609,-7.529877051658339,-3.394356932561432,g
-2.7180580046189404,-2.300048153179554,-2.9415244348428287,-3.0640056731672867,-7.26934467731914,-4.980654366466895,-7.25545283993628,-2.9172631086262344,g
-2.3248286650207,-1.6059230855417792,-2.20631343472913,-2.384436917384175,-6.698064313045333,-5.005157983486386,-6.685554872152086,-2.1736329834989707,g
-2.0966415140453902,-0.946391284302039,-1.4116590947451122,-1.5180365997242284,-5.930153839998519,-4.9051692689445945,-5.865507653858996,-1.1138650878400864,g
-2.2250192506329065,-0.6141783614357739,-0.7490451296212403,-0.6383688223119762,-5.1668283312257985,-4.803410330300111,-5.015364673870683,0.1721596964267654,g
-2.862978322337573,-0.8128151882186291,-0.44096041343498804,-0.005073356804526608,-4.623072965896474,-4.853379279559483,-4.401262374111466,1.4501084863872946,g
-3.9517940678479357,-1.4781991530063823,-0.5677397074744548,0.1992460146995228,-4.377305890060974,-5.140568023940713,-4.148282671899571,2.440919702242381,g
-5.205962360575296,-2.2845085660210933,-0.9850213578160893,0.008820730109976527,-4.30804488980625,-5.590159069260673,-4.1380906417853005,3.0081000303755303,g
-6.27095630547091,-2.86616278215533,-1.4096921996011018,-0.3280278634278988,-4.187322620551513,-5.990414512078283,-4.098164154029751,3.2641552038990036,g
-6.922773446574138,-3.0782867132010474,-1.6091509683149041,-0.5119374562744657,-3.862682256476905,-6.1495814660992245,-3.820279784980863,3.468109344123511,g
-7.150946325258412,-3.03673130240048,-1.5364215236712517,-0.39996593616967646,-3.363748598958149,-6.032192829551622,-3.3087557451363465,3.8163573317792023,g
-7.073045015470441,-2.880239239442062,-1.3053634727795749,-0.09736463761084163,-2.838916005411703,-5.719707358190181,-2.727388245598475,4.332595272486903,g
-6.771076939581964,-2.5097492434965867,-1.0462011169547027,0.1382757979199095,-2.397804620599658,-5.249811452138667,-2.2204608201123923,4.912203560673886,g
-6.199371958399982,-1.611096305730825,-0.7800698771189685,0.10520030343286155,-2.0173130610896908,-4.532466544277815,-1.79108122692524,5.420552501720902,g
-5.242046275731261,0.03683387093932726,-0.41677267347814195,-0.18377667355121896,-1.5865763352762747,-3.4312737813158813,-1.33109214179611,5.771305154167324,g
-3.858720079479066,2.27940600195891,0.1401200196807142,-0.5115073411499822,-1.0294983133867643,-1.9052005454454783,-0.7451279278197541,5.980786043446302,g
-2.1772212864541465,4.608727288125613,0.8853704129952831,-0.6209764666537014,-0.3895364446331903,-0.07277832400031245,-0.05154599544024996,6.1683240341691725,g
-0.4476330279575632,6.467070256198987,1.6922706814139907,-0.40391735778523613,0.18929769795123047,1.8318684722432206,0.6144820636630641,6.465531237850745,g
1.0946853742266813,7.573484315478794,2.38409592195461,0.022981982777218236,0.5625812876265401,3.563342830869396,1.0909518300772436,6.902298674251445,g
2.3332315175733433,8.034649658059225,2.825700454316301,0.39611650333041737,0.6814244280222338,4.970355894154673,1.2974515531371602,7.392586764735452,g
3.2639505358389442,8.183608927550967,2.9646390891774432,0.46886055368478524,0.6043413620754754,6.039599886481377,1.2696466217334408,7.822231866039542,g
3.9054807016693887,8.281490463602202,2.809383681676633,0.14537257447021293,0.4203097740675684,6.839892696249107,1.093341227164474,8.116414365423365,g
4.215691403850924,8.313181296723519,2.3841690378809295,-0.4976615042645924,0.1593636384240321,7.4152089566654364,0.8097687774004836,8.226915921837051,g
4.091112170127649,8.037697416997583,1.70717110290271,-1.2975884829976476,-0.22696352516149934,7.733729331251007,0.3861590597793155,8.108938592207668,g
2.4373815027942363,5.9810797123413915,-0.2128839260873682,-2.8917222680592753,-1.5783080673901804,7.3840755253528965,-1.0410005271207396,7.156225179133658,g
1.3310325098693547,4.599213538907911,-1.1916941322315169,-3.5856546088860766,-2.449678540726969,6.7249976341359154,-1.9535549317627385,6.412348481572996,g
0.5672687321098595,3.5607817602788314,-1.9125947836125945,-4.143528572135443,-3.253942730138796,5.843321760353009,-2.812066157019099,5.595521394143374,g
0.5672687321098595,3.5607817602788314,-1.9125947836125945,-4.143528572135444,-3.253942730138796,5.843321760353009,-2.812066157019099,5.595521394143374,g
0.4247018455486263,3.1960545529784037,-2.221805869207306,-4.494030945173229,-3.8396654438287205,4.871251836329172,-3.46317615013377,4.813726232262767,g
0.8493478650908866,3.5231516691059426,-2.1120981966607344,-4.606524687302061,-4.151082185017299,3.9548547241074603,-3.837631566310094,4.162412129402435,g
1.4937545160771564,4.2405551822835665,-1.7154145542053811,-4.518553513326685,-4.244867835626247,3.1957911928567784,-3.9793943234357996,3.653688855905287,g
1.9795524871939576,4.920353488077142,-1.1892214684908944,-4.288464115111883,-4.216266814292273,2.621568504431571,-3.9813587087981808,3.220037258508256,g
2.175962180874848,5.293697226046309,-0.5899115223246857,-3.922131475151196,-4.095067616771841,2.224832864709805,-3.8778292416965043,2.8352677516741855,g
2.256890282936696,5.403306498867615,0.14355182660504512,-3.3644431148215177,-3.8169808215773005,2.014040317705194,-3.60790096030881,2.6100986242553845,g
2.4829989358928706,5.481944909272611,1.0655385419296752,-2.583450490872476,-3.308724418804185,2.002010404878785,-3.0990213138157623,2.71419517634195,g
2.893232939849243,5.671810681769523,2.0656196123631863,-1.676911381782545,-2.6076425487712975,2.161567137872751,-2.38912998452122,3.194819020910865,g
3.1746018062148673,5.847411373785173,2.8280626710278773,-0.8976605473293601,-1.9018536613164443,2.426040616901929,-1.66667182644765,3.892477925539052,g
2.8369129809872917,5.681144280020885,2.9660019325540636,-0.5541987109721559,-1.4554913994940843,2.7271344576607395,-1.1948739194798914,4.525025745891807,g
1.5680766651644895,4.868618418927625,2.2414483627788564,-0.842221766656215,-1.4762124568309902,3.0019253916424353,-1.1814129533546276,4.840959115308754,g
-0.5068050993753583,3.3423212054556273,0.7138894838597529,-1.723165009787488,-2.007077499582365,3.173243944069828,-1.672202908284048,4.740565374065995,g
-2.864517608725797,1.3512796606321273,-1.2836411017746883,-2.9399370500873028,-2.899872893332627,3.1727778384531504,-2.5228464370593824,4.327578488096201,g
-4.883636803314271,-0.6353437630398837,-3.3164571337081328,-4.161738744986783,-3.887429395348273,3.0042496506357157,-3.4697911447816154,3.8515931865884143,g
-6.171023229769242,-2.149909635016164,-5.0442993844698005,-5.153198057851997,-4.715989447682853,2.7589563943545423,-4.26558933354834,3.5339645388600163,g
-6.689348467733933,-2.9298803475099913,-6.315327692008667,-5.849957876782698,-5.24863842896853,2.5523386036741793,-4.782692291476733,3.4061253845443185,g
-6.642706445875748,-2.968190619734534,-7.1232681568249605,-6.305119455813169,-5.471180651725731,2.4557405264107595,-5.012261481574402,3.3308778783170276,g
-6.257244997375729,-2.412902375037618,-7.498122895663151,-6.573079773644492,-5.420662531976391,2.4849619485746675,-4.987109431338114,3.185964179572111,g
-5.632937889356154,-1.4352539122958492,-7.429804501756823,-6.632028552855576,-5.115054450511366,2.625267379069092,-4.717203288956073,3.000405101519265,g
-4.746845009458279,-0.15640925327199726,-6.8674846093819095,-6.39713818714215,-4.53091744443825,2.8653285215161595,-4.177343857588229,2.918457665793221,g
-3.558487314867398,1.366249056204385,-5.768568171505952,-5.7985793382463475,-3.6195188092414154,3.2450112490375425,-3.3227332503342253,3.0829656630443143,g
-2.1032420544012576,3.1123840178285724,-4.151905444205767,-4.855684750468782,-2.344722403357885,3.88238092315692,-2.116791930828262,3.564199060196683,g
-0.4974443310769752,5.035031004894855,-2.128417495268729,-3.6923538857616265,-0.7363014870160279,4.90685525351765,-0.5798024683871772,4.333835287690537,g
1.1244829198969308,6.998692721547606,0.10189493817655677,-2.487393143650427,1.0723140493743162,6.322073125344018,1.166979975929796,5.253786858222826,g
2.660057460611324,8.79121946647343,2.290328042628985,-1.3987434639326954,2.870706162331385,7.9488407863710595,2.920046316714363,6.1251082660238625,g
4.027704402364632,10.219582054123485,4.20504083634823,-0.513335342505829,4.46175244874259,9.536261001656944,4.48160237063378,6.810368978325998,g
5.125096282045121,11.202983305814497,5.689378467224606,0.15005744750501307,5.744380895803698,10.927925961619474,5.7430807765837635,7.3152576236801705,g
5.818509796924464,11.77952557539567,6.6801748016173095,0.5986728904365219,6.721777934314568,12.108063271412117,6.696212356626222,7.730682202789216,g
5.985235514793379,12.036913769839853,7.181116723121919,0.8260926038384506,7.442649152874436,13.107841766869004,7.382834509799075,8.110479616483385,g
5.579973902114607,12.037126305872706,7.2209107316483125,0.8120972163561039,7.93642692838287,13.898869737607559,7.83956494883499,8.426770842463302,g
4.680400661832997,11.784961736611999,6.835237881174959,0.5624295992988473,8.190251243858539,14.373204085936965,8.071798047408446,8.614684467267162,g
3.4771067273878074,11.253972791181,6.083109312760437,0.14623870607191955,8.17374538569597,14.405324413181054,8.061401486015248,8.61772391110636,g
2.196398056474125,10.456943386892537,5.0681274040514,-0.3181920183503808,7.886313822561138,13.946001175083785,7.800301250167934,8.407010283515065,g
0.9892409603675638,9.505248094373133,3.9269859710803035,-0.732755665179106,7.386527163601821,13.090806316898892,7.324236016385124,8.007195804320187,g
-0.13638314801131787,8.580300636603162,2.783031844888936,-1.0880383429345222,6.773201654358933,12.060301470164909,6.710198553242999,7.504277064226254,g
-1.2775671079331592,7.815011442474881,1.702993797758943,-1.4681692134157265,6.13097029800746,11.081015473825481,6.035479274029657,6.985543407874208,g
-2.5141358114100214,7.197861650238822,0.6956290211021029,-1.9850887889143984,5.492654973797562,10.261940245748672,5.344945665119856,6.466016090287418,g
-3.796813605917657,6.607496773896793,-0.24615947407738065,-2.6927043222143263,4.854884319343222,9.581118158989595,4.662903749138924,5.910247205309618,g
-4.931565902285456,5.942929378147759,-1.094168768533318,-3.5351230977432166,4.226432335713271,8.97592376530844,4.026385704683163,5.332115666671027,g
-5.672004061192538,5.213699926253485,-1.7658089211588297,-4.3503085093626845,3.659493506778265,8.425464906847571,3.4948563287319083,4.835533649566995,g
-5.863865681483551,4.514931141532352,-2.1576879657391688,-4.927636865718329,3.2375404051498835,7.956567500934682,3.1294153699970813,4.541865852891603,g
-5.558460772377383,3.9302293465040448,-2.2189744662118596,-5.105883273682271,3.0273518542412483,7.600508989278829,2.9626065420886354,4.498307585887534,g
-4.615994786304603,2.903523663256297,-1.758478132073768,-4.382752704920036,3.090388532003597,7.053483330702859,3.0336859086526804,4.863499638106923,g
-4.604172396713268,2.113952119476937,-1.6823119348764557,-3.8996615475013505,3.048287030990458,6.530093748200185,2.9924742778540536,4.959932306666994,g
-4.999959821252578,0.98904710206518,-1.9475458595829462,-3.620394383861054,2.7460599320185426,5.579350776917238,2.7121002030039176,4.816553961343991,g
-4.999959821252578,0.9890471020651799,-1.9475458595829458,-3.620394383861054,2.7460599320185426,5.579350776917238,2.712100203003918,4.816553961343991,g
-5.552625718099402,-0.282339048147937,-2.5036048102364954,-3.5584616835573017,2.211702764149525,4.219825919946817,2.2151896056244142,4.469923599052377,g
-5.883491877407998,-1.2657769832683858,-3.086612134550782,-3.529733714665498,1.6692337800732655,2.7440135295995325,1.7062118530271395,4.118588368586399,g
-5.696209013361379,-1.5283648083697887,-3.3549628558747613,-3.2764976689182626,1.412710228463776,1.5607724090942114,1.4604938731517252,3.9769277909784115,g
-4.943353274701093,-0.9227137906598595,-3.1007190383001033,-2.6571530031020774,1.6132272271079908,0.9285958555169713,1.6454677087393712,4.113014335313693,g
-3.847485112946663,0.3299128955173199,-2.3934686822458917,-1.7680350112601686,2.2019621506636007,0.8022822753618826,2.206331327216141,4.417420061123472,g
-2.7525445047340287,1.815678711511763,-1.535602633685064,-0.88707915953275,2.9225224440707134,0.9060367512031107,2.9049823898316856,4.696301509429929,g
-1.9004190690907143,3.20505904825266,-0.8452575205966889,-0.2629027135677765,3.5212992503467127,0.9646360403543479,3.4935275998985618,4.789201308038313,g
-1.2996463030710157,4.416710554340138,-0.4339700044128797,0.07618821446373925,3.929348665946997,0.9200453975647177,3.895255857626862,4.651776153933348,g
-0.78734022112452,5.56250569451634,-0.16344342980478244,0.3147502576307865,4.277322611420458,0.9620335562922427,4.235079585167218,4.372699051229505,g
-0.21880856171687454,6.7325721948992765,0.18666137484913206,0.6475469854120137,4.718471224966181,1.3196012220401871,4.673319538661269,4.085342159438393,g
0.3886901220463729,7.806524727762299,0.6948311216416655,1.0770149033055554,5.220513910028724,1.9740017597534556,5.189702248806482,3.8155824806805554,g
0.8752980515999409,8.474317801296504,1.2149882695900935,1.4027308404575014,5.5355121808234085,2.578560484752324,5.53844511350467,3.42837848447232,g
1.0845451253361738,8.469502714998557,1.4942438637630402,1.4020463761139201,5.389451009080512,2.703622843051789,5.434652595772183,2.769749148876406,g
0.9999030698997602,7.798421055124214,1.3723250789497048,1.024298582881027,4.713495489335735,2.188475837431203,4.794550260567783,1.8615297493441774,g
0.7632850575028021,6.7425807576209,0.8899099779955796,0.4254326037936256,3.7026162516233896,1.2627097845629902,3.803390173820447,0.9207910020463258,g
0.5720326092882032,5.648826621947496,0.2320237876514036,-0.17475280265579105,2.6626492406772218,0.34553457824113376,2.7669847485252888,0.18510075768090006,g
0.5409427695092136,4.722247372594829,-0.42396176417926307,-0.6773360946979591,1.7956825602398798,-0.2601397459274474,1.8980171819512237,-0.25955106256605776,g
0.6316163702190604,3.979651625242513,-1.0220547733423655,-1.1678823977636916,1.1002261272221174,-0.5248410369715083,1.2104816391640245,-0.5018317345757979,g
0.6910209529498427,3.3327935726763025,-1.6219740489280707,-1.807868342066136,0.44284827645125746,-0.6341289664136194,0.5775635340322601,-0.7157492479733905,g
0.5563633881294276,2.690695358731503,-2.3027816682969977,-2.6590171739115442,-0.27950964891775854,-0.8064426335566942,-0.11589038320121156,-1.053029592249464,g
0.14702580412593608,2.020411359186998,-3.071794418978153,-3.6038555364019578,-1.0234849035936042,-1.1175295127005231,-0.8494552650254088,-1.5619852617303187,g
-0.49728541191666287,1.3612637008868014,-3.8430374290447147,-4.424352140641569,-1.613557867233314,-1.4390101609807442,-1.4614879238049925,-2.168630795836619,g
-1.215775902890275,0.8149263708265717,-4.463728207400523,-4.942038971228798,-1.8509149439465857,-1.523259751376441,-1.746013363308597,-2.74870026230179,g
-1.7434762557092074,0.5516998301432441,-4.732904124852761,-5.079430545117459,-1.6028537905546922,-1.1469147782934328,-1.5468800472150326,-3.226909467732176,g
-1.7671614377044533,0.8342957229229537,-4.412234459718535,-4.814925052191093,-0.8083569224995667,-0.18678093138502322,-0.7764304121011203,-3.5861382211243837,g
-1.0445291425130496,1.970922791028905,-3.2877037888161302,-4.128925507587388,0.5466186549864368,1.3823292901772577,0.5960796367354468,-3.790184106488823,g
0.4576205904713369,4.1248160546389645,-1.3004090609185224,-3.0283274945214305,2.4026547557568287,3.472543214498323,2.5069907569447176,-3.7586305332466607,g
2.5111372714981046,7.092114199381713,1.3418482049814193,-1.6162644002809248,4.569867986318881,5.8338566780875265,4.739442468549008,-3.4498718187050725,g
4.723871683872751,7.426387959511347,4.193844797060559,-0.10204690317403546,6.742901367884341,8.087868776900159,6.954883784026616,-2.9256424697678147,g
6.728507888027861,10.174901709722105,6.759903552903959,1.2896209642201495,8.62298193691222,9.901202727175868,8.841220032232348,-2.2886751706428337,g
8.32348998205685,12.064176086032015,8.71203407736363,2.4317590985159194,10.048857642981876,11.158195494763179,10.25379255905819,-1.5801446600024107,g
9.468096033821295,13.100010191068552,9.978497417182986,3.3170327831745885,11.014848354300494,11.955504631316593,11.215524999923737,-0.7811939913039412,g
10.157917297574343,13.544278126108471,10.648952069446365,3.9616905166873777,11.56580899066467,12.432955953369369,11.784367941308876,0.09470276948599547,g
10.304815707338479,13.614116178574971,10.79087990890864,4.284823965229389,11.672476533372416,12.616078480998294,11.91744637428646,0.9428560313402864,g
9.738015596578995,13.280802579666235,10.339247379410834,4.093885651158936,11.202448069486342,12.398064651945853,11.453156592832554,1.5912278644821949,g
8.33454265659632,12.310597489891963,9.155461172428497,3.2192115159604966,10.02257492359664,11.649741087489733,10.235100018877025,1.865262802883623,g
6.165289387085528,10.514607740608918,7.202922174752476,1.6944015090310416,8.159945280653409,10.370241390415107,8.291118909992528,1.6670958061862269,g
3.5220056137247497,8.00935377532223,4.680754964802406,-0.18500602715766518,5.883672314859398,8.77267459121526,5.918253909902604,1.0517805345875568,g
0.7998304939972375,8.12165305811613,1.995799098315795,-1.9927651589747009,3.618624387588838,7.21984932448647,3.5784951499121243,0.2312784758580066,g
-1.6606606625443774,5.707818098702728,-0.4003331340480075,-3.3850610783983064,1.7496633943495774,6.035454059128634,1.6743927736856192,-0.5354210636064396,g
-3.6536724713741897,4.031627565777384,-2.1766848744920773,-4.220215785574023,0.4776293694077024,5.353186253151047,0.39185646360287424,-1.0720771494196675,g
-5.089913742303812,3.183109180544329,-3.188799549845002,-4.520125131981185,-0.17483750657918745,5.1392278827975675,-0.2773752594016152,-1.308156433542831,g
-6.225697638000023,3.459895843603017,-3.0657982482682016,-3.8292434304727827,0.14006996992142512,5.84882662633095,-0.05920437745760685,-0.825265029248867,g
-5.993374522832081,4.339690562145994,-2.205017823840202,-3.0247948762477117,0.957433656491949,6.630484284681373,0.7095582395805065,-0.21566768224643162,g
-5.373594048940471,5.597400110995528,-1.0670656791119448,-2.1130175662337587,2.062114233499344,7.50011950083193,1.7914823290801845,0.4495010384646078,g
-5.373594048940471,5.597400110995528,-1.0670656791119448,-2.1130175662337587,2.062114233499344,7.500119500831931,1.7914823290801845,0.4495010384646079,g
-4.559646790366201,7.065455953618056,0.14001606654383414,-1.2820454425398187,3.2923957533492727,8.290922909829783,3.027615549599602,1.058739274664766,g
-3.7537239309424293,8.470569542339948,1.254537905950158,-0.6554896900601133,4.494253031374961,8.95051889198508,4.251924531310993,1.6183139211176105,g
-3.074957710129838,9.54175234649132,2.221136349277918,-0.22554789617147933,5.570774784137571,9.562800413817612,5.3509814569023595,2.1955344952481117,g
-2.5049157486169626,10.181235029154433,3.1012126562117053,0.11658621695435718,6.4983042923231356,10.25386254760784,6.294190639822338,2.812659512317261,g
-1.9297510370699409,10.527568917429639,3.9955287893962863,0.462950054484068,7.28657101036746,11.055982209420717,7.099662554176694,3.4012257236705388,g
-1.2563731516977916,10.806940425221333,4.919018646940132,0.784152116198403,7.904044956067025,11.815918406793433,7.748506928635207,3.819037369943337,g
-0.5115229373061629,11.089932488461113,5.734354253345547,0.9416925107597065,8.240106740151075,12.222588105496898,8.129695308741042,3.8962909911789447,g
0.1556337918227341,11.20215039994846,6.221383450840799,0.8201232212014089,8.162127814370049,11.983424731404709,8.094200908412962,3.5246730328473306,g
0.5744591034739919,10.892946024700716,6.244700047929725,0.46562540653984996,7.631215878247571,11.045446489310988,7.585679258602947,2.7624709321545775,g
0.6896296266694767,10.09517149521183,5.885978134945128,0.09900463417262895,6.764988265665375,9.654095427003995,6.7176083839851,1.8335618952382657,g
0.6303773908141873,9.020623596963196,5.422955311759218,-0.02541182059143097,5.778724262603899,8.160069546006646,5.71371296332891,0.9665380070922518,g
0.6434566607219943,8.01190732399437,5.156311483556831,0.193982134585428,4.855558713527887,6.746471891185571,4.768438759680187,0.22329399823328414,g
0.9273185290009961,7.2980260863734685,5.213334969228212,0.6337009154552821,4.059533124670122,5.342021509707907,3.953362632932901,-0.49582828164906934,g
