Fz,C3,Cz,C4,Pz,Po7,Oz,Po8,Inst
-8.149818832941815,-3.896697690665029,-10.195171142441074,-13.95767450029481,-9.74156137801417,-9.666880538943095,-8.798966808291498,-4.615533738710967,g
-8.149818832941815,-3.896697690665029,-10.195171142441074,-13.95767450029481,-9.74156137801417,-9.666880538943095,-8.798966808291498,-4.615533738710967,g
-8.149818832941815,-3.896697690665029,-10.195171142441074,-13.95767450029481,-9.74156137801417,-9.666880538943095,-8.798966808291498,-4.615533738710967,g
-8.149818832941815,-3.896697690665029,-10.195171142441074,-13.95767450029481,-9.74156137801417,-9.666880538943094,-8.798966808291498,-4.615533738710967,g
-8.149818832941815,-3.8966976906650297,-10.195171142441074,-13.95767450029481,-9.741561378014168,-9.666880538943094,-8.7989668082915,-4.615533738710966,g
-8.149818832941815,-3.896697690665029,-10.195171142441074,-13.95767450029481,-9.741561378014168,-9.666880538943094,-8.7989668082915,-4.615533738710966,g
-8.894109522912744,-4.2185987504590186,-10.972023448451758,-15.236764313330719,-10.75316503648964,-11.115199787153513,-9.66120850580961,-5.142616522236482,g
-8.867254174014212,-4.228362582240844,-11.1166562404021,-15.40313147599295,-11.346917438717579,-12.177425498190164,-10.21234172707663,-5.291214394625133,g
-8.130300005948323,-3.8632185795926857,-10.647440029531342,-14.727788565495313,-11.50306328431545,-12.831397087052801,-10.377108732295719,-5.199689579149196,g
-6.864324551012108,-3.125867187298934,-9.693032404779487,-13.642435656673348,-11.224347236532719,-13.03069524625993,-10.101121384019647,-5.006748557214934,g
-5.2688600998832325,-2.0947501289467008,-8.422133684742331,-12.496505499150008,-10.546845580103804,-12.717954185570083,-9.404539000473445,-4.776649256147313,g
-3.495942248027147,-0.9106832018173658,-6.974264511356502,-11.425503119944072,-9.54689378335637,-11.881034582515374,-8.39368539921632,-4.51688805683455,g
-1.6704478560546305,0.2666046117141324,-5.450332467412101,-10.405664080489846,-8.342317722110632,-10.604678050838844,-7.2233410431845995,-4.236197345924668,g
0.034119950670863465,1.2990139571710355,-3.9704648543028456,-9.422436123356718,-7.0965821982157395,-9.082804449842623,-6.056935449341616,-3.9785695088503124,g
1.3563276827857293,2.06558513080183,-2.735277443356501,-8.597196388658512,-6.020900901777042,-7.604113863060894,-5.063769777559651,-3.8348627658712537,g
2.0140121974353487,2.4409788931185856,-2.0039813473498334,-8.159423900399505,-5.337789193226513,-6.503813269289149,-4.418134535438308,-3.923657359874222,g
1.8509570510631543,2.329370216926081,-1.9711173282341008,-8.287165254818103,-5.187373998563853,-6.044432573439811,-4.243195970085223,-4.301569049363157,g
0.9516645725243743,1.7510827825286903,-2.629912792890777,-8.952904613560971,-5.5342823780215245,-6.261938430987141,-4.525900517812415,-4.849444083952152,g
-0.3753185655192105,0.887750327906977,-3.7427615776279595,-9.905212335888194,-6.166368315753845,-6.909402677827835,-5.09643785777989,-5.2787509469192075,g
-1.7472175189432932,0.027219520508391336,-4.957225895743252,-10.802068571310631,-6.801701475925209,-7.576630485546074,-5.708153330609137,-5.305220024989983,g
-2.893652716653529,-0.5450868854957592,-5.988101298952218,-11.396461580345939,-7.222546753507591,-7.899676013391826,-6.151761906216388,-4.83547382006992,g
-3.7569054130414328,-0.6375685757011139,-6.736662129073707,-11.645345154306517,-7.347446763672819,-7.70901238964579,-6.324913996184232,-3.9947534391409576,g
-4.4399767988424665,-0.20574381215793922,-7.268087367106008,-11.67300131777453,-7.21826837706554,-7.053398812644581,-6.237573504443253,-3.008292128947441,g
-5.045013089173975,0.6421777270858264,-7.6753137268889615,-11.622684684272883,-6.930255328182163,-6.127402235156756,-5.967499848385586,-2.0670858779629233,g
-5.532848808508425,1.7132681061605808,-7.947649335481278,-11.514747782615164,-6.5493854918579615,-5.143989090115849,-5.585787260173757,-1.2509684014348443,g
-5.721835473052675,2.846483706514621,-7.961067501323564,-11.22995738680893,-6.070017412675496,-4.207341012770556,-5.09974042415122,-0.515143969612234,g
-5.426754222621098,3.9766647453156274,-7.6002897341993645,-10.634128326160766,-5.450442621097129,-3.2758118486793757,-4.472421754308033,0.2424004733414103,g
-4.623271973012422,5.078570527953518,-6.90174818022312,-9.735494787324038,-4.701896986424026,-2.2599200925660834,-3.7130564210076358,1.0477827431642974,g
-3.5160890812801524,6.053296862178863,-6.090573835856374,-8.739548485559755,-3.9517546086642183,-1.1709967603449911,-2.9502751484987595,1.7673253587119695,g
-2.4723957767774305,6.680122702957566,-5.482703417882519,-7.959047557056371,-3.423720214964793,-0.1817793877321238,-2.413310240779499,2.1770279299138573,g
-1.8623258099009656,6.684130531268605,-5.327252101017543,-7.649795624629718,-3.3494509318461225,0.44258831927931797,-2.3365715964152427,2.123275505851505,g
-1.8835919031514639,5.872729043012884,-5.688104987971434,-7.880816921494429,-3.8640636548669938,0.47164654988813703,-2.852967096704765,1.614469436923208,g
-2.4571170610210045,4.263575905512643,-6.420868323229979,-8.509162076163316,-4.928031636929456,-0.17844114964901686,-3.920424828911898,0.7900685222093091,g
-3.258774977294256,2.1361107929500474,-7.243323666916278,-9.261514554499996,-6.307390673507954,-1.3755468087197507,-5.305557959860255,-0.15154099834670703,g
-3.8791338018418395,-0.03989903092988101,-7.85196669393053,-9.864117202766042,-7.638373584113107,-2.7770991139836254,-6.648493319838278,-1.006709533320824,g
-4.020317677154506,-1.7838996200105868,-8.022623910404366,-10.141849464829017,-8.563784464555003,-3.9465807673341153,-7.598766245354308,-1.6219663973099254,g
-3.6216924120034384,-2.7915199725694504,-7.6606556112031114,-10.045099798818622,-8.869409771874803,-4.540902348780429,-7.947724895297159,-1.9478374085719934,g
-2.860033955114066,-3.0131593786610713,-6.806787945253518,-9.623876204648576,-8.538728114253384,-4.448875173857537,-7.674304031359403,-2.033572688110705,g
-2.0371666311398244,-2.599519993494752,-5.613798554485576,-8.989839019086114,-7.706289950118466,-3.7991216549988187,-6.8953705788574435,-1.9621575124874084,g
-1.4167520671115625,-1.7873207224426277,-4.294680871329708,-8.28212037607005,-6.561450931583347,-2.865323008484733,-5.781999474241062,-1.8095657570603225,g
-1.1021330189936491,-0.8032763425679486,-3.049973382621389,-7.633446213675566,-5.270097213387735,-1.937701467056185,-4.497818867067163,-1.6628216937620377,g
-1.0320977272750056,0.19071450020678507,-2.010470758171933,-7.1418164427157915,-3.9485598233970998,-1.1982087517449187,-3.172749885801212,-1.6228770982543188,g
-1.0867001576336812,1.1154381946932883,-1.2299450057867005,-6.857536542068492,-2.68296764467656,-0.6382439328016176,-1.905785340878651,-1.7441705853195244,g
-1.2013150822734608,1.9557514488111192,-0.7170462253825717,-6.77999162006832,-1.5600146826664933,-0.08526259121683277,-0.7846983769967926,-1.9828360126255429,g
-1.3888174545062242,2.719954544080167,-0.4630648311714708,-6.854899043674348,-0.670766494746686,0.6503229873974521,0.10419329387812955,-2.2293450865937507,g
-1.6748043996835125,3.408972258964751,-0.44652596697081004,-6.985871672579135,-0.08136460320543693,1.6139819360302368,0.6949671113112498,-2.3835882528423347,g
-2.041232038353442,4.003250080005121,-0.6389373722725475,-7.084239102606398,0.18725366469554597,2.6592502218977625,0.961700845970024,-2.393978259328558,g
-2.9097411634674546,4.635360276230676,-1.6702470006243115,-7.282785342210123,-0.29476309311806065,3.9831679737737153,0.4547899469274951,-2.0805411962870908,g
-3.5104754443100497,4.463089094251448,-2.6192276818116165,-7.683603825369801,-1.1543273107869827,3.9049115789144913,-0.4185632784175528,-1.9643248626734622,g
-4.353161394527249,3.9126967369748455,-3.9081041235690934,-8.466709249971691,-2.458139431305636,3.3405286581715536,-1.7196585114145435,-2.0100640876836473,g
-4.353161394527249,3.9126967369748455,-3.9081041235690934,-8.466709249971691,-2.458139431305636,3.3405286581715528,-1.7196585114145435,-2.0100640876836473,g
-5.451221397577251,3.1009745050901816,-5.461230618115514,-9.571370157198261,-4.07372293714791,2.4497443875790106,-3.303714165742245,-2.1952751511266375,g
-6.691276022236506,2.1937399061738385,-7.107428339396442,-10.758374821479064,-5.7487440243968475,1.3782173502376,-4.922357402947281,-2.422895111663455,g
-7.913351757793018,1.2559057837964458,-8.666505385768135,-11.753348854952336,-7.2351793037827035,0.158128012940076,-6.349689932024595,-2.6339115021004154,g
-9.049065913506947,0.18561295488969015,-10.05141455085261,-12.437547308911416,-8.4156992102951,-1.2632211278049656,-7.490944473188257,-2.8559871308332125,g
-10.180104126814921,-1.198770783915864,-11.2977013933694,-12.931382377030602,-9.332103911244726,-2.9015961057563926,-8.391917876010307,-3.1552710344136057,g
-11.436535381278624,-2.990515149187396,-12.482724172159736,-13.481683216314227,-10.094290713660675,-4.652212243562752,-9.149182442179116,-3.579379480079428,g
-12.81519731664371,-5.074284926539902,-13.597766962552665,-14.229223585486324,-10.73861621588886,-6.311809452039544,-9.785016671841529,-4.138574045354298,g
-14.100345728795961,-7.145089008397454,-14.49759815139872,-15.05729158694344,-11.155083183354561,-7.663088628929375,-10.185169547394542,-4.7917805395530575,g
-14.985628262560676,-8.872442422518777,-14.994187898239673,-15.667707587623472,-11.165096095678832,-8.563596414394649,-10.174677741357366,-5.442998298762657,g
-15.300040133669302,-10.10531921602622,-15.020327499471083,-15.826995282139942,-10.69973231397144,-9.01331109691249,-9.69215718544672,-6.002105479729763,g
-15.135444790961085,-10.94552243985591,-14.708913140744267,-15.566917805273723,-9.912214580765179,-9.158950337038968,-8.900689506102093,-6.476982883874103,g
-14.766490550778958,-11.604195216050964,-14.30855961941474,-15.167317705310214,-9.101528968570655,-9.192851216589712,-8.106368047079958,-6.97563992773695,g
-14.443276738252488,-12.167468264416557,-14.011102552836983,-14.945334436177813,-8.50753314959111,-9.20311833040509,-7.546117807303128,-7.594477660815228,g
-14.237363701665725,-12.502820486427689,-13.840764795736657,-15.032572973855661,-8.163554605161771,-9.11701540428423,-7.240764839052096,-8.324850325397387,g
-14.053647352908518,-12.389338767704189,-13.683540091820309,-15.311117002100607,-7.9239660031694115,-8.797078361378459,-7.031382668316025,-9.075828711300437,g
-13.765617162682014,-11.721201343795403,-13.40659192280683,-15.53546316400082,-7.6142110911124785,-8.184259913519526,-6.735490531345659,-9.747316841810028,g
-13.334695025762993,-10.58904044477143,-12.956445113707053,-15.52285758286676,-7.163199174567557,-7.352043141752854,-6.279575734191033,-10.25724354380431,g
-12.81299915683187,-9.202045298786246,-12.367194175378959,-15.258131031534566,-6.625286164573666,-6.454245399096587,-5.72277357282455,-10.540274180758002,g
-12.253414055997533,-7.753562212173387,-11.696886813904605,-14.8476609734164,-6.097420720305124,-5.6346768957991795,-5.177306571586807,-10.567499767753853,g
-11.636757468886188,-6.332634122907873,-10.965104038318081,-14.390936371876808,-5.608769565238641,-4.949462113488014,-4.691817458753552,-10.352230373043676,g
-10.893966493427392,-4.923143204472416,-10.15177786845857,-13.899769917047223,-5.078901791772272,-4.334768757991194,-4.193199962579994,-9.902831249464167,g
-9.995228634747335,-3.484891348915709,-9.254099898900124,-13.331804098616692,-4.388861056790125,-3.66151225177135,-3.549221835818975,-9.188273863784222,g
-9.012506091196974,-2.055624674857932,-8.340672821249584,-12.685033091475105,-3.5045183942874303,-2.861162991816832,-2.703135456651753,-8.189088897235862,g
-8.096423772347777,-0.7747250963122083,-7.542935674645859,-12.045170875348024,-2.53027918196286,-2.006385584865142,-1.746177254748487,-6.971659600957163,g
-7.393400036177994,0.20473669444692016,-6.98418297463833,-11.53579679702803,-1.6380150392640935,-1.2528831134933782,-0.8544486629603668,-5.675543869777428,g
-6.9749405181883475,0.8204562205651778,-6.7066186822589655,-11.22288490039736,-0.9470101458926136,-0.7086488407316391,-0.16394189029041195,-4.435093679181162,g
-6.824735340415822,1.1109822752842038,-6.655449113790288,-11.065720773408216,-0.470820198418883,-0.3764232751499792,0.2923816059941607,-3.3456770109762424,g
-6.870986212922716,1.1508638187977664,-6.7212401646049145,-10.954143646172053,-0.15681403198883495,-0.19990328851890338,0.5567853953374982,-2.4852527755479534,g
-7.020340533788591,1.0153297026790544,-6.792330384118751,-10.789288407537162,0.05175432840271976,-0.1142329912859695,0.6952274684531012,-1.9018768352940927,g
-7.167548873813059,0.8010554802926926,-6.775391509992872,-10.531540164347602,0.1965110693582152,-0.03967061712023522,0.7760218005515843,-1.554780045528233,g
-7.195192142966141,0.6302369448215936,-6.586203035675391,-10.178777573400707,0.3262518915987567,0.13099540776242158,0.8726953245031552,-1.3037629772347108,g
-6.9956727540251595,0.6008794311272891,-6.143449079916542,-9.708616286714618,0.5208195308771677,0.49921045049119755,1.0681825274284769,-0.9847036659476137,g
-6.52203141127629,0.7395454475906406,-5.3901513481269365,-9.055437893173714,0.8837783759893852,1.1106462361515779,1.4483194128462569,-0.4922893004031108,g
-5.831666872124174,1.0091322496945128,-4.335285699262811,-8.160451616329269,1.4961498352475786,1.9360313903835604,2.07330911845992,0.19159032371115617,g
-5.077809664439073,1.3487721028972106,-3.0826047615110412,-7.0567633866572645,2.357971445447677,2.884618548469322,2.932765117419099,0.998784060566156,g
-4.443142137194121,1.7027738116894455,-1.8145554583932835,-5.904180487120972,3.371608754183751,3.8392062084373757,3.9294640946093486,1.7922933478364018,g
-4.057040252066005,2.034497800054199,-0.7272152952609547,-4.92335597808335,4.395060417728498,4.711532342296928,4.92886645483984,2.436937181812569,g
-3.944869066645181,2.3330617626779473,0.05073086533710978,-4.269625241543745,5.3197614560857325,5.482678639265079,5.834302587573766,2.8949730532157396,g
-4.0281522314672475,2.607080399956322,0.5046921485685145,-3.9469689382896873,6.095826262308085,6.1710789912841,6.606543892362557,3.2308565460311613,g
-4.167501842200897,2.87663444250908,0.7161427996323592,-3.8326314514110726,6.691475124580565,6.749146974270625,7.216003623747258,3.494526630583971,g
-4.230964136110777,3.188222097830469,0.7929270759540581,-3.791056263468242,7.050857448659045,7.117193003801067,7.601102513396538,3.6212010077843724,g
-4.160724182996367,3.6269340222716027,0.7944540160255806,-3.7847880110716914,7.101516463413882,7.181923926828385,7.684001351734247,3.4716456173266765,g
-3.8476601397387626,5.005770753202064,0.42774122789067287,-4.252803534181441,6.094079149539253,6.4664915518172865,6.757933292661749,2.074682075652618,g
-3.7906277587033967,5.604536584069341,-0.09235166699140909,-4.9098679868613715,5.018301133248971,5.817048107402959,5.728965854323695,0.9388261006997645,g
-3.840843674921314,5.716111353650631,-0.8839834867889322,-5.806415943555253,3.5748577307014955,4.997508452137827,4.334760413355008,-0.3134648064647842,g
-3.840843674921314,5.716111353650631,-0.8839834867889322,-5.806415943555253,3.5748577307014955,4.997508452137827,4.334760413355008,-0.31346480646478414,g
-3.9638951124237147,5.141774938317186,-1.9174354189010263,-6.812304809227067,1.7823391203443706,3.98399454130873,2.5941720617184894,-1.5486155161918356,g
-4.155662317317356,3.938634370114481,-3.1481624619197777,-7.835320561159369,-0.33056322819119827,2.7566207825882545,0.530797950457376,-2.7155704456648433,g
-4.502904574008404,2.3525910370402103,-4.54938387044975,-8.889430485938531,-2.7056670721697698,1.3115869070750255,-1.8097461920839806,-3.876835993881457,g
-5.161245657050543,0.6444040458691791,-6.105754028041159,-10.06293977424007,-5.227619365038068,-0.31916981229680835,-4.323387094532111,-5.125747108356984,g
-6.2451503564290345,-1.0536291347092004,-7.774931473692644,-11.409291646832989,-7.722556531204022,-2.045843604205459,-6.838421252389513,-6.456895730551167,g
-7.698976154619979,-2.7577113259379415,-9.454693275437526,-12.848466277647173,-10.004225664555836,-3.7385637059699746,-9.165917383599385,-7.733984105438926,g
-9.255207747373424,-4.516480719829698,-10.988633030753856,-14.163799542662,-11.935684712917777,-5.2790340553470765,-11.168956909308186,-8.780751206120526,g
-10.541319760689063,-6.246529815544517,-12.214273324403724,-15.111876817848856,-13.457451480854449,-6.591643349844136,-12.787302723067917,-9.486664292188518,g
-11.280530730486747,-7.679995372398129,-13.025106910315884,-15.573906846954845,-14.57441798735535,-7.641941170276274,-14.01413964492661,-9.85158944697121,g
-11.436415464794536,-8.511910597476028,-13.401286115308512,-15.628120373725944,-15.325891001237068,-8.436227036561792,-14.865183943293786,-9.980800130989076,g
-11.182181500665328,-8.631977289777224,-13.382976815074253,-15.470504103922895,-15.750626096392972,-9.014780304924539,-15.355169943802323,-10.030558330318188,g
-10.725181797923836,-8.217950834397243,-13.01372633772308,-15.240511850948588,-15.854028731798897,-9.399861654135155,-15.47745291607389,-10.091172196710044,g
-10.146583016936685,-7.603488472616469,-12.317044012168722,-14.90560078036697,-15.610057575691204,-9.536716809630233,-15.211018152565401,-10.09162946484292,g
-9.395704271715905,-7.051717238552716,-11.335385934324947,-14.31391497054525,-15.020126241080163,-9.327839668985309,-14.576844389440742,-9.860947654952245,g
-8.429652319897246,-6.6202902415215945,-10.184903690764417,-13.368956774292425,-14.180723435444639,-8.758859546159156,-13.694570498354386,-9.321311647437827,g
-7.354464075479423,-6.187116048524766,-9.051135656818897,-12.164909716927848,-13.275042261702549,-7.9705108287547715,-12.757025752811101,-8.601873353295925,g
-6.422390484648607,-5.586731493840814,-8.107732362546072,-10.955054282711362,-12.474484267485034,-7.174464435240159,-11.922882962851505,-7.937119823133386,g
-5.868837158856792,-4.760686882080343,-7.419832424136584,-9.972174733390649,-11.834709112274567,-6.498791431184367,-11.226011771927713,-7.464386180699177,g
-5.723710830934413,-3.8189081762571413,-6.914587276790026,-9.251467810262618,-11.277113892235587,-5.922479989373312,-10.582505898960067,-7.125264311617931,g
-5.772773899303853,-2.9582320927001016,-6.4502323466761595,-8.615039286714815,-10.666525585319828,-5.341205076964981,-9.878663667122716,-6.732627580055924,g
-5.722829412844713,-2.308618299117438,-5.938319753115712,-7.846200085979026,-9.925871199887377,-4.682911878100599,-9.069549679059282,-6.123696140462463,g
-5.437436912474264,-1.8614554733271274,-5.42699080323818,-6.910110740434956,-9.112385697290907,-3.988027926953383,-8.230976338866062,-5.303608780374344,g
-5.038578413932485,-1.5482205289010051,-5.0754570984483465,-6.023115568356404,-8.401209775266803,-3.4137520240710666,-7.532906544896457,-4.4957694465234335,g
-4.793304360638153,-1.3688134907997602,-5.037514617364817,-5.505909385886207,-7.979153729239542,-3.1527840841628922,-7.139417084973689,-4.03184934699204,g
-4.89881840077039,-1.4295188019163323,-5.354133220551005,-5.553918364777331,-7.928879517409172,-3.314850256032885,-7.106022702189696,-4.13078344469344,g
-5.350921644793537,-1.8696567208651413,-5.9442822390434475,-6.120018957558895,-8.201937922608016,-3.876414312206844,-7.367051486569963,-4.756235934428338,g
-5.97989842688083,-2.7579192503519314,-6.682813998098284,-6.977760551410332,-8.68954834097439,-4.744530231624319,-7.81683794736404,-5.683029416805267,g
-6.589152234707818,-4.026844444982654,-7.474429927324138,-7.871023347649981,-9.298476290009175,-5.8402718035728896,-8.382798858051746,-6.672986002069406,g
-7.070830072623974,-5.469761998008781,-8.259063207491124,-8.62117021682247,-9.95726421106148,-7.089818782307789,-9.014645133505372,-7.569952479015984,g
-7.420445876131039,-6.811111055459871,-8.971127974717245,-9.146180420506862,-10.58344150756937,-8.360903908340854,-9.636071030667138,-8.282882526966077,g
-7.664166654759562,-7.8265174598364835,-9.515784938668427,-9.42602852338061,-11.082074753470845,-9.471718868748862,-10.144345425046565,-8.76536879725045,g
-7.776780054893725,-8.429173285428984,-9.789219442775847,-9.460223819937479,-11.378738914234521,-10.286679916404669,-10.455803346216388,-9.025900368681906,g
-7.663236020319093,-8.652425320605468,-9.717246292239533,-9.239313247668276,-11.433746661632304,-10.7779983647811,-10.528189226533385,-9.098856061664863,g
-7.208974430311583,-8.561313394602204,-9.272584962518351,-8.734669826522538,-11.217782104595974,-10.979635445848462,-10.335143537532737,-8.972853229382032,g
-6.34199853097426,-8.188719371063303,-8.457833406634887,-7.90692212013447,-10.68691310548466,-10.902378655556403,-9.837062997858297,-8.576430415761257,g
-5.0606567871498855,-7.542526729224164,-7.2830239124327605,-6.737275509336973,-9.798626632462145,-10.509350560837587,-8.992702177309553,-7.860899084856717,g
-3.439724258373411,-6.658339692739274,-5.785403608871775,-5.283719622706203,-8.572501294528006,-9.768095414989997,-7.814618894386127,-6.892423569453532,g
-1.6413542205117593,-5.656696309084179,-4.096914365904316,-3.7336029938616533,-7.157384801757674,-8.731845336624929,-6.436569397430074,-5.868020638580984,g
0.09239859414383655,-4.760583341143431,-2.4849243056355976,-2.3849374512817354,-5.8342879291862175,-7.58695511102381,-5.127921667167936,-5.057674922459691,g
1.5103313545915404,-4.217700698680481,-1.2755380748723628,-1.5145388069475605,-4.899501792380967,-6.600346457295767,-4.189622655462317,-4.695736107418843,g
2.4647562744597105,-4.133589868208751,-0.6751673901191657,-1.2019471580074021,-4.475756717878552,-5.95785230687024,-3.762498942019574,-4.841932703537153,g
2.9724016700669003,-4.351460739672957,-0.634663276177027,-1.2616592596737126,-4.410922886608394,-5.616587314427438,-3.7088367204706323,-5.30475783144391,g
3.1746196964277837,-4.391267914239387,-1.1461395331398367,-1.2753818433923148,-4.148490642030322,-4.9137166694557735,-3.5033755784890515,-5.930053397341464,g
3.0844585190605827,-3.8953521867484846,-1.2629389632843981,-0.9594614435286732,-3.683447200073232,-4.332104009768459,-3.071468755550037,-5.858426733569877,g
2.9447886504445333,-3.21640548546765,-1.2739103738654354,-0.5550087067773186,-3.1492839286729795,-3.767226015503489,-2.57620350850897,-5.6879965582063665,g
2.9447886504445338,-3.216405485467649,-1.2739103738654354,-0.5550087067773186,-3.1492839286729795,-3.76722601550349,-2.5762035085089696,-5.6879965582063665,g
2.8324725581099446,-2.550548858821629,-1.2807322752045964,-0.19057121142741065,-2.7017595909063346,-3.379840894688666,-2.1816258532097903,-5.517861355689749,g
2.849173291918457,-1.9654782992886655,-1.3177372025820053,0.13216427830893193,-2.357292672944586,-3.1725587461716103,-1.90993473627274,-5.302827848661632,g
3.0573854402289085,-1.387163320251203,-1.302578375405207,0.5170646572401612,-2.0010913053379524,-2.9968042962881123,-1.6416060573337237,-4.931123543679058,g
3.4211654628065262,-0.6940270001140485,-1.0987532791082113,1.054574411187658,-1.5014159993103953,-2.6669899164686703,-1.2246859239027086,-4.339394634587498,g
3.820934284473072,0.16442198768256572,-0.632239496854456,1.7202008215526756,-0.8291555749561279,-2.0880066916841225,-0.6020621881720661,-3.5713141436245124,g
4.138949917607642,1.1053374375558729,0.03001584799575179,2.3675893423746177,-0.09801506828439557,-1.324728182729993,0.12939147823806296,-2.780507978250719,g
4.338400813896339,1.959816516208647,0.6991906696950366,2.8047194414315744,0.500199899457128,-0.5601947048091086,0.7717848344877698,-2.1757018487458475,g
4.459750891441654,2.599803262287711,1.1646405907861475,2.886826901678183,0.814719831267819,0.04966669506318806,1.1535988749130808,-1.9031254314195443,g
4.538707547732446,3.0262840372351034,1.3007773457088898,2.570038400327127,0.8153723066448038,0.5058974182740361,1.2263047980227115,-1.9453560588481154,g
4.533614246696539,3.332990152649521,1.1150908269292934,1.9146987400028501,0.5800524001222747,0.9468101736201661,1.0592365815324998,-2.1433242625884934,g
4.345369481687728,3.599946290789782,0.7256615051350416,1.058230726016893,0.22773938179197276,1.4946771592074022,0.7692630422074773,-2.3185529436228585,g
3.9160725373145375,3.8364485474441024,0.296387273079424,0.17423126732723593,-0.13358943882187096,2.124102258654631,0.4651584355299356,-2.3643395608560898,g
3.3049283749235476,4.0030664912409035,-0.037603999547267807,-0.5800247126990948,-0.42827524535404543,2.66083110828956,0.22435623003935873,-2.2528712034843177,g
2.6610272960270747,4.0458069444122655,-0.2255852897591712,-1.1177901330957036,-0.6299777586421481,2.880505387708724,0.07078642568067214,-2.021867833997238,g
2.1207860324021532,3.9054809871704577,-0.30811717291370755,-1.4442310423230837,-0.7701266867503527,2.6319519214020364,-0.037935381736131,-1.7644615386740887,g
1.7324691742259997,3.5353558983380444,-0.364501421686413,-1.614779712411769,-0.9028633099257704,1.9418229291452183,-0.1704979854045894,-1.563683347709802,g
1.4739232909058277,2.939898378613396,-0.43448143904759096,-1.6531199576872417,-1.036015999320576,1.0461556441039312,-0.34228428132867383,-1.386721501865869,g
1.3303773192103148,2.1892759724312634,-0.47443477324787314,-1.501987161614974,-1.097244692869762,0.28432015231399477,-0.4769613815821658,-1.0727747746240588,g
1.3424608432255172,1.388437952961257,-0.3829941539049059,-1.062816397196347,-0.9800867554139219,-0.1037547804192347,-0.4552151697132845,-0.4729221618330731,g
1.5704837200743191,0.6465282462638883,-0.07686469450513464,-0.30069899338192785,-0.6308237078364266,-0.1083023926089357,-0.20415377680346505,0.3924815024160376,g
2.0085959587196784,0.07866273877270613,0.43812473808755215,0.6758105457087767,-0.09975310042873753,0.10964724003917418,0.24756943826390082,1.318158054602262,g
2.5367023851002375,-0.1998875127190219,1.0508189361114437,1.637809332583452,0.4797843046966891,0.3908066503621922,0.7785442980220108,2.033500364302269,g
2.965426253631562,-0.12629522297168214,1.5947976779297837,2.35287920422853,0.9636544012318298,0.6932619936703369,1.2344141156130357,2.3428348790321256,g
3.140717214744423,0.25198878231756733,1.9280530417344175,2.7008882700528996,1.2684393945222152,1.0775769956597698,1.5058968089637712,2.213517739898367,g
3.0195318636529933,0.7854479702780461,1.984223827586018,2.692396051465777,1.3882964411999943,1.6088979380964,1.5711586187003626,1.7832321236187885,g
2.6591465716669447,1.2966413435566613,1.7637114812874954,2.383708726715743,1.3385547179972546,2.247897126206688,1.4577299741359566,1.2565930349007355,g
2.140823461793265,1.6508966124014126,1.2843860340367155,1.7797226764067713,1.0757219102371882,2.7930670338795656,1.1535992811750992,0.7330061111674866,g
1.498143518361065,1.770979472645924,0.5415865983684294,0.8236019197384106,0.4816264080366083,2.9371165576778986,0.5655452212855121,0.12374715158346991,g
0.7105211115186091,1.604363952274836,-0.4843221168987048,-0.5131763060089056,-0.5534739754220752,2.4366167530397296,-0.4166327739700666,-0.7312472493342529,g
-0.22840623112041286,1.0912930076229057,-1.771357007086565,-2.1200398221980015,-2.0130748754462973,1.275273872710977,-1.803234658740989,-1.8549977990221724,g
-1.2193936973687143,0.18707546340184739,-3.189052214928428,-3.7171436955326875,-3.7028262885447334,-0.3161940471093616,-3.4385066087547678,-3.0506012792138213,g
-2.0298489980984455,-1.048694982587936,-4.484419730906191,-4.949309738628155,-5.309508773134828,-1.9844604555907914,-5.036127610940705,-4.013708171678601,g
-2.3821924080072847,-2.37254902802052,-5.362932316322693,-5.553856733354843,-6.534258240490798,-3.4038915080736247,-6.29342500201418,-4.51745309647674,g
-2.1132342574736276,-3.4096078076347225,-5.631418362513475,-5.484629777575373,-7.219997486211516,-4.365711037765649,-7.022018345153448,-4.529469500676723,g
-1.2831422708581808,-3.8561199850025742,-5.29863246565643,-4.894048160381272,-7.394062149010646,-4.80518479241949,-7.216393934018356,-4.210242925570958,g
-0.14217847509972606,-3.6731701775549275,-4.547254708963111,-3.9873693820835463,-7.195170658521429,-4.77919553831385,-7.004149457500108,-3.7960991517118656,g
1.0228163713730312,-3.0841199850464,-3.5978722070801297,-2.876184003462208,-6.741315873054219,-4.3952316436383425,-6.5119967192268104,-3.421206457966721,g
2.0498866027770872,-2.3714084198938914,-2.57646721555071,-1.555225933520437,-6.052365816579662,-3.7366741682952798,-5.770704700367896,-3.017500841393403,g
2.9636383854916106,-1.6583941066076548,-1.4832560028299953,-0.006110567925110821,-5.090972707028753,-2.854006802086414,-4.747948628902433,-2.4100216933954934,g
3.907339339588071,-0.8546105959354744,-0.26752226493856773,1.6828417986444655,-3.8659617292954067,-1.8138816575295806,-3.458228549575432,-1.5274415441872655,g
5.003535013861184,0.21906543450417093,1.066818624202099,3.2938712848570155,-2.4867580248800225,-0.7193583275158291,-2.0217269275518257,-0.5003701200715033,g
6.245849525568615,1.6437095044223184,2.4098894786924716,4.5741582556446705,-1.1229266997043044,0.33280069470100404,-0.617618588919448,0.45196109920355293,g
8.55951787150815,4.874943026912634,4.4236091862867415,5.702658345178323,1.0488320956126123,2.107180112444147,1.5849072114424398,1.7603162515554522,g
9.287113893041214,6.0962118384172275,4.861876493530846,5.714208209306942,1.778747369631878,2.7256525410380936,2.317524968092267,2.2235894486210857,g
9.58900498166155,6.82020831916019,4.918914158221356,5.561030760207691,2.281747244938578,3.0647557664137883,2.8183485542990456,2.659082470279927,g
9.58900498166155,6.82020831916019,4.918914158221356,5.561030760207692,2.281747244938578,3.0647557664137883,2.8183485542990456,2.659082470279927,g
9.428546095711686,7.096047734395111,4.667520923345423,5.319987647731449,2.5494312923418163,3.0775753749958144,3.0702618104950172,3.0637327980295392,g
8.810620197195197,7.050485706046129,4.187009165062926,4.9885857624969905,2.5516687874175035,2.768672077721857,3.0265407343978867,3.3571869252786164,g
7.786448834579486,6.765551629023646,3.544079216464683,4.54570391282791,2.2765722723169164,2.1847358472431555,2.665685701319981,3.43319776157841,g
6.453646987969139,6.253702707943745,2.7938614386168856,4.00577937042348,1.7736890810227994,1.4096958100049277,2.0514954739884765,3.249027673608231,g
4.945101243674434,5.516398404122574,1.9885161215612754,3.431260037665486,1.1542365385247149,0.5570974753625209,1.3310392221756828,2.8671675641974126,g
3.4198924313852173,4.597693787953736,1.1905362992400197,2.91546543614767,0.5450540742844536,-0.2662823906854909,0.6644293416907052,2.3973988385143405,g
2.0607394242180717,3.5937259602375407,0.4901195791078229,2.557860322094748,0.042825252600407634,-0.9995796613998204,0.15670859065853554,1.9173137612246065,g
1.0647951726444136,2.6395599164797927,0.015471099327342409,2.439074780041582,-0.29225299435409624,-1.6238839291360203,-0.14815420515065963,1.4717350475747444,g
0.6152116657814977,1.8786765475264164,-0.08213647567492259,2.5979885323194223,-0.41706254955495004,-2.1328624252400057,-0.23100323617149865,1.1174506605214674,g
0.8368733893033788,1.4052460136188087,0.32747489446853084,3.023137302987269,-0.2948964326029061,-2.5272875940722503,-0.07213367665714854,0.9144758707280853,g
1.7564368002754525,1.2227988127573972,1.305487697468394,3.675154463871005,0.10545108479329227,-2.8174428867419534,0.3550856924687281,0.8807335018440441,g
3.291699463809993,1.2847307119515199,2.827481430268363,4.536026068871362,0.8179639787122435,-2.984422120385883,1.0913671622327752,1.0098734157675016,g
5.277850679737793,1.5864401519279197,4.801278964909814,5.642523141809134,1.877949564932886,-2.939365109207846,2.1821880748976437,1.3387180203438402,g
7.508552269045289,2.1908194301464468,7.084674648626937,7.051163500167844,3.276507306597817,-2.57922930550093,3.619811580113452,1.9355012105597607,g
9.762229725168554,3.139613708310306,9.478560375851478,8.737437261788735,4.8919319797008995,-1.924901387776568,5.269804027866372,2.7819991048383925,g
11.811953791956842,4.346087368707315,11.720055282982203,10.512867419688039,6.476859824192836,-1.1851044579756334,6.868655264556759,3.693942706162192,g
13.445895715146543,5.585848496375346,13.522245496458604,12.056217714835345,7.746467854906037,-0.6431544728640972,8.125621089134594,4.3949245643648,g
14.515260496509399,6.600471970869293,14.668634662358212,13.066294436937232,8.519765134822183,-0.45613471774224584,8.863987572237098,4.681731299279493,g
14.987693145093889,7.247432899890787,15.11089470671229,13.43189464211414,8.817862677431423,-0.5394501170278696,9.109784928651765,4.54593418700659,g
14.9617027185195,7.6110085697021885,14.9965204789018,13.286876227457071,8.851995175511224,-0.6171155155752984,9.078116597336043,4.184277790892226,g
14.618830584514305,7.9845510341180725,14.590102726734518,12.902648590706832,8.898098245704972,-0.3962920592898658,9.054996029270987,3.890366015401709,g
14.1374305624551,8.682640794404838,14.126259325514917,12.496696384298431,9.124974223022926,0.23794774543427027,9.22534212222997,3.859298718146202,g
13.620928629368626,9.787101675212368,13.690645275678534,12.100560455745399,9.492584559932109,1.1374426582340087,9.558759506617589,4.030421034030364,g
13.078081744522766,11.04161506448063,13.21331777731513,11.580237481158802,9.804856747307714,2.0014998510764195,9.853323242899002,4.133709514482987,g
12.453402826743556,12.01138354503079,12.575506693290311,10.780343686722604,9.878036080088444,2.6118875464772224,9.910133367204715,3.936516347563569,g
11.68209320775085,12.387127925724723,11.745260885692574,9.675643054379494,9.684002456921414,2.9826668205792686,9.689682119253563,3.4585066537001814,g
10.743172131387833,12.190176277466641,10.840231439748916,8.423797836927488,9.360062175309311,3.290606135276738,9.328698107213597,2.9465168320578656,g
9.686938861033257,11.733496998746848,10.072686841026764,7.292771487055933,9.099359151360197,3.6800074670526137,9.029790979475829,2.6643114031003443,g
8.617918703436763,11.382836097619345,9.6161625628647,6.5167263255339325,9.017504187077597,4.141773297153833,8.921551110989025,2.713283920973381,g
7.639636288033282,11.292567415429799,9.491593603774662,6.173445097893506,9.08424410785155,4.54957404936832,8.977903506738537,3.0031315863585295,g
6.8004186518517695,11.310929496394852,9.561950288730776,6.160772297474213,9.160062555939398,4.782718745195569,9.044818874483479,3.3405156185156577,g
6.080517578398282,11.138643190448192,9.641150774019305,6.2833056742883855,9.11544751790064,4.8352111772196045,8.967830750037617,3.5685711588092572,g
5.424254791962936,10.613894402567382,9.625757922434246,6.382973191063195,8.944668007775357,4.8475372323450605,8.731165844393441,3.6868015097337072,g
4.787720154250634,9.860873237414513,9.541186304185633,6.4213860412662545,8.774075211475832,5.0266636566335965,8.481756132252736,3.8509234796708527,g
4.172314946849069,9.161595733787932,9.480464497925231,6.469332609126255,8.754634096399304,5.485885135296774,8.406930675168258,4.217667009557358,g
3.6310501611324426,8.696390554347362,9.512052968856926,6.629141425863544,8.942452638638024,6.134440541642883,8.584501052382942,4.7717502200836694,g
3.244367867911696,8.421345779977244,9.641577900649336,6.948068189698679,9.274836775191794,6.734562927406328,8.945285606517023,5.3185386559079895,g
3.071035428679398,8.172793501895423,9.837437960407055,7.370146567400738,9.640026445582977,7.078617910072848,9.355720861450642,5.6386630580988335,g
3.0984265935588096,7.847214752982843,10.06707595656733,7.75031683177356,9.955086909466376,7.115971042296783,9.715965390105612,5.627585325978845,g
3.2281702478779493,7.476671585067661,10.299919600336054,7.9280071304704025,10.19196834186006,6.9371206577348445,9.994828002428655,5.3122997758123995,g
3.3141980683021366,7.172535840996386,10.48460746532881,7.822097314562134,10.359855045801764,6.678132168317992,10.207897850976678,4.802179797552571,g
3.231630811083554,7.027799982135269,10.540193365251035,7.485039835533263,10.476909965434398,6.441530515528726,10.378295181222056,4.244806390796471,g
2.4475711842234955,7.248471763044982,10.002040863102135,6.747737906545899,10.594676934067227,6.1148996823020765,10.588735174352305,3.459061957230381,g
1.847122115247999,7.5457871933417495,9.44097130572551,6.568842720572957,10.61504234295553,5.9709066898620025,10.615949481780078,3.283766854847543,g
1.171528105118524,7.934656836913182,8.803666904935607,6.456532116716436,10.629288324325376,5.857203812434024,10.610034974518339,3.2106431302130622,g
1.171528105118524,7.93465683691318,8.803666904935607,6.456532116716436,10.629288324325376,5.857203812434024,10.610034974518339,3.210643130213063,g
0.4139841229430072,8.361476822039979,8.15967552958968,6.250514914653534,10.618807954815342,5.855309462646724,10.570744724121177,3.201909582407238,g
-0.43509122063087136,8.699615377321901,7.511187433305295,5.837277248016863,10.517921356533304,6.034694424497402,10.44593268419433,3.1965492959247754,g
-1.3214556403891073,8.801410127452886,6.826270873558488,5.2523062583623865,10.264140345102442,6.41199307629184,10.172454708461151,3.1157762365120307,g
-2.1199441202828746,8.609350725017837,6.098401102310363,4.6675796641702405,9.87065149660278,6.9795096027683154,9.759296923371402,2.9371209039944213,g
-2.716023391965859,8.188520795064575,5.359519474259484,4.256680412580971,9.4269080317447,7.726715922438008,9.301139812999939,2.7327773508106223,g
-3.1088507561324286,7.624625277756172,4.632035665897668,4.037364205716211,9.005649601052111,8.587952127922645,8.882266798240774,2.5853920138549076,g
-3.4301076161858206,6.910055490170613,3.8813596399022288,3.829182822438999,8.571793524376734,9.387784708798701,8.47170648415782,2.4771698453038544,g
-3.839513411905442,5.9678775369442105,3.0361459967905007,3.383436753452952,7.99813483670067,9.898102965382835,7.931662920939511,2.306248097149772,g
-4.3743616533670195,4.792581550321444,2.069792928050211,2.5958292027372596,7.180150527851228,9.98428114305837,7.137377459031339,2.014517510634164,g
-4.890078394263869,3.5384758972491204,1.0614405326459448,1.6225796737052296,6.141598073768473,9.696477692694888,6.094320158994745,1.6689572505589687,g
-5.163231854643241,2.4446583433110307,0.1627315544170306,0.7853095163461985,5.037029957074419,9.220749284491228,4.952063658820733,1.4165426571255244,g
-5.078359656933728,1.665880241946779,-0.5093374017349345,0.3332049564209447,4.053868137506596,8.74468022044242,3.9102657979125914,1.3799602670645181,g
-4.727181666926331,1.1715384629489438,-0.9497491005216225,0.26636500080565384,3.2974454950996597,8.342944104687064,3.093588716964159,1.5798409196313454,g
-4.324004439745757,0.8017557573583567,-1.235261011472628,0.37078537833701775,2.7485669103793775,7.947648717581937,2.4912670634968634,1.9129241114586228,g
-4.020170262729526,0.42438219499617613,-1.4218321267908922,0.42054034244515737,2.3200941137880307,7.420268351328784,2.0074323706525203,2.2042002957865594,g
-3.793134806759679,0.050871502628454565,-1.4767421650762207,0.36126057650563537,1.9567960885632723,6.687977773421686,1.5752591079197056,2.3303781491658997,g
-3.4977449180361715,-0.19225735195808952,-1.3062368101506778,0.3286483285875984,1.688985354895987,5.837718723809829,1.227793505986083,2.322221810613587,g
-3.0084945021641007,-0.20406070737727972,-0.8394600305730917,0.5123837834533239,1.5988633722387953,5.066965073385151,1.0629086473865597,2.327777245367963,g
-2.3189979519326966,-0.016834702960317815,-0.08791256259449387,0.9932202625300972,1.741661200858855,4.523984367722986,1.1490891561243806,2.4620453437111265,g
-1.5322631295765423,0.23791661500600297,0.8581639734855699,1.6777371177684128,2.0943441508189626,4.192744878244291,1.4663020604637127,2.7079180439776596,g
-0.7761305169583066,0.4543977718219464,1.8742939157087792,2.3651100219242083,2.560842265986029,3.9248535099518427,1.9168312289599136,2.9592452826050186,g
-0.12179326276384475,0.6237459820153325,2.8451673611790884,2.8830486184367428,3.0112441489609134,3.563132126184474,2.3698894748666186,3.119750512884748,g
0.4426386287670915,0.7954851423226932,3.6864626991954723,3.1887417234191555,3.32829379046276,3.0419230158794703,2.705806369367064,3.147773692640771,g
0.987236068165761,1.014531597539629,4.352574629524075,3.367735860283518,3.4504159062826596,2.4181385850251993,2.856996158820277,3.053807173081153,g
1.6022719690908438,1.3182633987195906,4.842863559233032,3.547236798361662,3.3929811346722056,1.8410764712557217,2.833072030216397,2.895581849628618,g
2.369873016748021,1.759278898831313,5.200181583007529,3.799328422567734,3.221558260489906,1.462898021303348,2.6980453930578334,2.7479107123344404,g
3.329191783647513,2.3741104864604354,5.481306134962063,4.097971239777122,2.984793498047817,1.3200298528797134,2.502608201873829,2.6289505527678307,g
4.42084955857021,3.1065448098985238,5.699439557877106,4.3384055615532775,2.662133890184033,1.279900743198073,2.229443624092766,2.457161389399739,g
5.451527625148392,3.77568021475129,5.7817842305835,4.39099697524506,2.1767717165049705,1.12022094819617,1.8023104454963554,2.1110746831026654,g
6.1496052689695855,4.145582030352912,5.5967006178662055,4.163732906464249,1.4662477078737826,0.6790290588907167,1.1492240422689404,1.5385303760413236,g
6.31646163052149,4.062284156956622,5.052697987345539,3.6553330752053057,0.5556699533612323,-0.053018860944616344,0.272839145576503,0.8078649642931539,g
5.966778112730782,3.565108997745495,4.195299322285415,2.971195791364125,-0.42310405803122764,-0.9524189164117054,-0.7158964320981548,0.08019843219591083,g
5.326071870736979,2.874182254824474,3.2081286376397635,2.2737869507641664,-1.293014594013306,-1.8548269223117946,-1.6353895142755295,-0.4546557090681895,g
4.665693649577139,2.221974073625702,2.297123859055875,1.6801875175203371,-1.9492709503508514,-2.6631619084468037,-2.3461644302197344,-0.6706056179425564,g
4.104099729073134,1.6408003578801071,1.5448907162951717,1.1771091490390913,-2.4476172673670833,-3.418134216020944,-2.865761834042054,-0.6119031729113922,g
3.541700336795165,0.9169017926874249,0.8622120504226378,0.6297841866869223,-2.9708893795487126,-4.264228987414641,-3.3674691580118656,-0.514418326933402,g
2.7842651234953335,-0.19827301085634427,0.08725275726773055,-0.10883281050311293,-3.6762771773704834,-5.302820495544792,-4.0318864121270845,-0.6608573668606941,g
1.746166537587682,-1.702829752411089,-0.847478508542746,-1.0685558164381959,-4.5489971519114265,-6.456327254853309,-4.875988179860075,-1.1704688495046611,g
0.5520925879190157,-3.2806777329717485,-1.8268221863099554,-2.1148775040972874,-5.397496807647464,-7.493688904990869,-5.721647423909199,-1.925348453087463,g
-0.5601346079398775,-4.540105241493342,-2.6287360794857233,-3.0264902125727446,-5.996995445542845,-8.202295986310958,-6.331472012601093,-2.6897065157466704,g
-1.4562688897195208,-5.328846033392769,-3.108983010231617,-3.6438986065342873,-6.257603498790615,-8.530764505892199,-6.589237194793593,-3.2814578498427798,g
-2.2450089669608233,-5.838373923732773,-3.338541475938443,-3.9760639341398916,-6.284653441610301,-8.578350133663424,-6.58291708375612,-3.6561030961843466,g
-4.521527907229087,-7.2774910022566015,-4.028777623797106,-4.4165883894103235,-6.447722036993383,-8.31509269256269,-6.652512426889869,-4.109529624007327,g
-6.127417101864396,-8.261029065202965,-4.7410877307811266,-4.72511371426904,-6.726392380255204,-8.064288877539074,-6.939184221922699,-4.372396884352014,g
-7.668791297615161,-8.945122822084084,-5.4653370832805335,-4.9742644433242384,-6.934014184444881,-7.656142811517538,-7.207757964045847,-4.6055663530891655,g
-7.668791297615161,-8.945122822084084,-5.465337083280534,-4.9742644433242384,-6.934014184444879,-7.656142811517538,-7.2077579640458485,-4.6055663530891655,g
-8.744222885788126,-8.9391963670569,-5.8678628362682375,-4.968444257630857,-6.843620521742696,-7.041085919020415,-7.208045977852498,-4.6593226056057935,g
-9.157873670167252,-8.213517108439667,-5.763187712991227,-4.598988170512253,-6.377824635241531,-6.270555354570398,-6.833372380366943,-4.472025717288133,g
-9.024564823506365,-7.153068045485085,-5.248997560101489,-3.9401421729166146,-5.681601363885321,-5.49091999508332,-6.212017366277342,-4.1676245988164,g
-8.650544647932028,-6.272389987268887,-4.625154449275595,-3.2208114991028696,-5.031657160136139,-4.844249807809502,-5.61700225967316,-3.9753679414148357,g
-8.28878088964927,-5.834815352462174,-4.160822227975999,-2.6885676021748335,-4.6595799351321,-4.380759106823992,-5.282205865406344,-4.062147178227448,g
-7.960372066747032,-5.701323916473658,-3.896174300157606,-2.4559394569679904,-4.6194779952081815,-4.072834248093066,-5.267203149834357,-4.435922105549076,g
-7.472742897820298,-5.504127207485965,-3.6324090836581284,-2.4340442847976087,-4.776318344311103,-3.885602454881757,-5.443651928778676,-4.958339676786621,g
-6.60054923765463,-4.960683347825901,-3.104070689181535,-2.3972527676303783,-4.902263322009227,-3.8037917095594054,-5.5868085247746215,-5.411258091250634,g
-5.272981871204555,-4.076187092623259,-2.1829869828693225,-2.128130711687139,-4.811373356432207,-3.8062959111585064,-5.509538672491351,-5.589223668748312,g
-3.6320892483397897,-3.1121703290022853,-0.9555719279036543,-1.541065113645274,-4.450145433308987,-3.8544193122167156,-5.159431294950568,-5.399869385587314,g
-1.94739406565527,-2.3678833449890613,0.3640333005390764,-0.710803968410967,-3.8928093071986027,-3.913146796851774,-4.617305711044774,-4.899219250627256,g
-0.470374049140294,-1.938314361907898,1.591719055879918,0.19799136022726033,-3.2590309229214354,-3.9667095514731527,-4.007283325959495,-4.212902353498669,g
0.676870741189832,-1.6336518580942871,2.676017859256285,1.0487967549477608,-2.626115644994914,-4.014712626792933,-3.4002923613248632,-3.4214894490195973,g
1.5303415026108391,-1.1281768079002576,3.6887103418320906,1.8266402567313023,-1.9937827379713837,-4.066544387257904,-2.7810948816553926,-2.5273142503539656,g
2.22915633043676,-0.21749656351663083,4.73559268725154,2.6428862287980683,-1.3036584398274766,-4.1270301642586125,-2.0774119538295133,-1.502514485501246,g
2.908219935125183,1.0199911205909244,5.857432966166848,3.63191760314431,-0.4892557114433216,-4.163614071299298,-1.2169068231368296,-0.33568758075715516,g
3.594197774209936,2.2608508482571423,6.977230020210994,4.80022357504723,0.4606079219996951,-4.100539579796599,-0.1940683616003077,0.940612257246148,g
4.16501144816196,3.11883271194044,7.917537159448403,5.947076956508428,1.4519876690828477,-3.8852400090682813,0.8786500608466377,2.206734047278243,g
4.398903466575253,3.344292642091954,8.475144030661173,6.737396612937465,2.295256239242934,-3.5705672240685176,1.7878301396731353,3.235633484216413,g
4.083154145067762,2.9290233104357313,8.50742632561465,6.884142223374401,2.787274506024215,-3.3042385273083035,2.3193450869508907,3.7760652164437287,g
3.121821988619967,2.0622100945460233,7.981644402595398,6.306658254061131,2.811831270187786,-3.2172068854120126,2.3700308114918185,3.7039956441887143,g
1.595026068091046,0.9807833492823221,6.975464756237612,5.16146363137342,2.3896605531100255,-3.318093794027278,1.9845788571548497,3.1001178780453094,g
-0.25009788072899813,-0.15195283906200752,5.652360609935262,3.7477852015906388,1.6652794314340724,-3.4748873286347632,1.315495039232697,2.1926819275418574,g
-2.078584688688051,-1.2378563468423942,4.228038485866447,2.363858903058939,0.8578575977242566,-3.4711195335465,0.5623566716828485,1.2461343361862187,g
-3.5941212061316223,-2.158794521420999,2.920292803517919,1.1940554197862785,0.18850415732832287,-3.104738808703081,-0.08611237200869541,0.47253135640943567,g
-4.650018550748754,-2.756471254526699,1.8872138593114727,0.2766539405825008,-0.20648937944142412,-2.3132036799002336,-0.5141786876612797,-0.03575816170202191,g
-5.2694068335864,-2.916818944546214,1.1928983326814193,-0.43980160704920807,-0.32643435166124396,-1.256327522491055,-0.7150563212675106,-0.33326235384494113,g
-5.555009984377583,-2.64851706483208,0.8324906128226595,-0.9960667373080749,-0.2663044749718709,-0.2508037350648695,-0.7518619970322163,-0.5417974052416153,g
-5.556396323891159,-2.0549848979005345,0.7935251708074548,-1.353448586944852,-0.11037597869532094,0.43657601617883585,-0.6667595930098368,-0.6904070378271667,g
-5.199330293397283,-1.2381964018013822,1.0951766157226963,-1.4032156148794706,0.14358135564306795,0.7651749220912883,-0.42983184322476886,-0.6356075610493694,g
-4.333383733882483,-0.2409588543736561,1.7730735221242404,-1.0346092903400308,0.5665120749203407,0.9091075078554487,0.026106056118353836,-0.16110645919392716,g
-2.863540339744136,0.9325797923149292,2.8289787053890176,-0.20676517345705053,1.2197480278137383,1.0931926841012878,0.7354059543488014,0.8487039643554788,g
-0.8680413800021629,2.257834227705286,4.188756169326853,1.0136015666827944,2.090458415065624,1.436357645649332,1.6615798453647082,2.327979197151437,g
1.3899038525023797,3.641869180132434,5.701379424560968,2.4597262146161087,3.080145424560409,1.9017872656327868,2.7019039379549272,4.0683583071973235,g
3.576192324847905,4.924135794230445,7.186319556944954,3.91734375790454,4.043467124262481,2.3450039649840684,3.717598400945731,5.80243524660141,g
5.4495868506181,5.949451166209018,8.505026673296546,5.205925167501457,4.855402771809957,2.616966173976305,4.584922205657866,7.297607421266752,g
6.951722955022615,6.671967990504332,9.605235625846522,6.242347038950341,5.4647479840111775,2.6668206501210157,5.246091458625571,8.449263337993266,g
8.151149468575271,7.1752218404455395,10.496791394599539,7.037836166987598,5.887362126227887,2.5646115994245555,5.710131611542971,9.3015151804502,g
9.091625851992669,7.550579412454333,11.177336546793203,7.631980797743596,6.14476092232031,2.4147699661283366,5.994755742067518,9.94628999362738,g
9.686269930828345,7.752170718180347,11.584053675322764,8.029788209536887,6.22103299306641,2.2550823353099627,6.081307901346421,10.40195081147367,g
9.766382563885283,7.610156093371448,11.63168488542342,8.204319364010221,6.094691342327499,2.0596062863650024,5.946980942857901,10.61897733316417,g
9.25084162043233,7.010995065554447,11.309070477122116,8.155188315696295,5.804161716924518,1.8202240571333719,5.631662540737824,10.588592761248314,g
7.168463427206843,5.004565266199861,10.126704372447069,7.709588035116463,5.152886100444759,1.3267102370383246,4.8862848257826546,10.098736186158774,g
6.235781910210644,4.150207461439762,9.656881969878576,7.5171714699898065,4.931564147051575,1.0267844949242155,4.602388851602594,9.731862727406043,g
5.614828771363301,3.6284775054749807,9.392705810614851,7.392003240882701,4.766493384598578,0.6154015274561188,4.38159532236404,9.247450084543399,g
5.614828771363301,3.6284775054749807,9.392705810614851,7.392003240882701,4.766493384598578,0.6154015274561188,4.38159532236404,9.2474500845434,g
5.233746114572235,3.413272058257598,9.281957088616481,7.3012693541413825,4.638986873997531,0.13619616673415327,4.2199457897907156,8.635309603666013,g
4.927557690152251,3.3792724209546376,9.220025742382372,7.221943489155746,4.581511911094919,-0.26302098518911465,4.149570513149198,7.950024462493216,g
4.567759945262897,3.3956304394301484,9.10734205355352,7.167222089788476,4.6499367871052355,-0.43732715474925554,4.211739666971637,7.289120637546175,g
4.104005152774709,3.3816824423519796,8.859656150235047,7.145172403718878,4.844596134229675,-0.3639296667734971,4.3946993211832615,6.739292445010695,g
3.5218572827676757,3.2932018030902066,8.395070228730429,7.095686381727058,5.054331427948851,-0.1788645227866174,4.5896757856019885,6.302967288929116,g
2.7944589571901983,3.0774231532369902,7.645020206777021,6.886931229041371,5.092734339057863,-0.09710354554084208,4.622235746766614,5.857075434385567,g
1.8825111047471772,2.6708765397465464,6.593316693781304,6.394495736999963,4.819717058348251,-0.2530255376950259,4.362022427788355,5.226783820770368,g
0.7648448369493819,2.0435617925727807,5.292991563181189,5.592300341818404,4.244099873507801,-0.5815324172217908,3.819016041336725,4.343611613434219,g
-0.5506051652136597,1.208432350124728,3.8212132594743347,4.5611377540252915,3.4965787668560693,-0.871777126379467,3.116265480074396,3.315028935662464,g
-2.0490676336471143,0.16473226376521105,2.208236706144149,3.4026624427689685,2.6894007229688257,-0.973160778434252,2.3533798736091653,2.3082106228608232,g
-3.723499559806868,-1.1313353341030041,0.4277280225548215,2.1495153336140467,1.8106000713692043,-0.9478565331624097,1.509793411606071,1.38480184675529,g
-5.535403635511358,-2.6804594695358626,-1.5118096181166245,0.7742422364237371,0.7733296918855984,-0.9990788229934193,0.5024584597712509,0.48536013235895625,g
-7.332869975175257,-4.3071206949936895,-3.4431792739634743,-0.6969809024242479,-0.42345512696569354,-1.2515675724827513,-0.6579330407800095,-0.4364602318552647,g
-8.803839421068997,-5.641736884417188,-5.0095323464428265,-2.073246988828145,-1.5833963107766926,-1.6157904431971637,-1.7709392380388873,-1.299479286822341,g
-9.549615008892923,-6.281807480707789,-5.794142587180156,-3.0199387996416798,-2.367183651216484,-1.8554008547062968,-2.5079043260658898,-1.9088074750151296,g
-9.282090324522683,-6.0299849366507505,-5.5518682000136135,-3.2414811749215415,-2.4911849002893254,-1.774388357263269,-2.5986366603476054,-2.0655283858680393,g
-8.028657302070497,-5.042900367651802,-4.387593767869283,-2.7054973733253194,-1.934691251896663,-1.3714752081104542,-2.023540655471928,-1.6988309608283636,g
-6.180855174264732,-3.7798610149271203,-2.7407743667972726,-1.7187375890530951,-0.997239074464108,-0.8650350531960459,-1.072424975252122,-0.9523375006469145,g
-4.317543274254176,-2.7567369149875636,-1.1632388251583676,-0.7628844563823547,-0.13597806987888933,-0.5663934118362417,-0.19590086874885676,-0.14243515068495896,g
-2.908068406342882,-2.246521344451533,-0.0323366257680985,-0.19985798222610973,0.32004429804864076,-0.6655350863360241,0.27227491411575827,0.4283130626837817,g
-2.098720608607772,-2.140170000406669,0.6062874045982377,-0.07497092836132442,0.36510393966349086,-1.0806675301859348,0.3143621392338611,0.6606111023578832,g
-1.7177098727994504,-2.0791002385209807,0.9745160381263046,-0.16084265474010656,0.2724705095879255,-1.4997865646904347,0.19214325429388107,0.6697698636302059,g
-1.4713809432446423,-1.7444189233522578,1.3487211839633,-0.18238135318415205,0.36241138713645416,-1.5779295729145393,0.22163630996989953,0.6259409080068042,g
-1.1876095350137823,-1.0702849530668497,1.8526341987887194,-0.03876057296140582,0.7713536476955788,-1.1253503796035482,0.5474579748325186,0.607335222484276,g
-0.9558302717594482,-0.2628712537268289,2.3696324665800796,0.12346159486401845,1.3691712299166288,-0.177265789736133,1.058123398537399,0.5834264667938294,g
-1.0854919729882233,0.31607355093476164,2.6000939860460424,0.01054212676591515,1.8414110669438877,1.0351655826813644,1.4550621940383475,0.47232098503267067,g
-1.9060158796464282,0.3081871589566974,2.2264640565231266,-0.6210280357697492,1.8682702257671167,2.169412720370221,1.4189898758390846,0.19452029234023485,g
-3.5268241377714715,-0.47477508845609223,1.1069815958641267,-1.7927261816387603,1.305431838126395,2.910679286647561,0.7952248515404639,-0.270650230646198,g
-5.717241610153377,-1.929116172490654,-0.6116475816993117,-3.2678979864789426,0.2657446717481967,3.1266430914303727,-0.30737897102157097,-0.8319303075396922,g
-8.00244863887033,-3.692377655835189,-2.54985297701648,-4.679106169497096,-0.9590838521696389,2.922012804876963,-1.5863153372989773,-1.312696017843413,g
-9.923214929770744,-5.365988713442535,-4.30308693930266,-5.733431171976348,-2.0899688914060817,2.524726634060051,-2.745719095524457,-1.576268015653272,g
-11.283507143147856,-6.778486719067571,-5.668439413350378,-6.357913255531044,-3.027373256080385,2.0896367795015913,-3.6754836452957753,-1.6351930676201718,g
-12.214414142304781,-8.0743559901466,-6.730398183027775,-6.699646033966049,-3.880341055918442,1.5742954141787284,-4.4841279603463144,-1.6401723670134274,g
-13.010928140398203,-9.552148533482455,-7.739610215349056,-6.9938290004065475,-4.85253386240403,0.762680496750266,-5.384900636265931,-1.7870972419933147,g
-13.853158602363862,-11.364803803973354,-8.861872887677702,-7.382223892239331,-6.0638321254841845,-0.5857740147668011,-6.518111918367728,-2.2297931919373104,g
-14.604643595914444,-13.286877036523626,-9.973208348238055,-7.7880200641789985,-7.409829107815005,-2.531533669404473,-7.804955640302706,-3.0080249315906378,g
-14.837356733777018,-14.732285262269162,-10.663535731048274,-7.9346417601702495,-8.552893681332533,-4.813118440273966,-8.924050399658787,-3.987207585992072,g
-14.081799724379872,-15.069123826531122,-10.47286132279838,-7.517370585326043,-9.082760247035253,-6.909504241449132,-9.46198796564676,-4.884560921915359,g
-12.133871833423253,-14.041701306136858,-9.200133286358938,-6.419511379923269,-8.763466871635881,-8.324582819056204,-9.165786646140445,-5.42666647580371,g
-9.198807848274274,-11.960700315637434,-7.049430287297204,-4.809090064267487,-7.686861458463426,-8.893366330022392,-8.10975066657166,-5.519774002297835,g
-5.7729396730459985,-9.482789088490692,-4.499434029421368,-3.0347262158061694,-6.207926754555402,-8.853462614505153,-6.639122489884531,-5.267016033036319,g
-2.3645306797066477,-7.1709267941464585,-2.006555483973839,-1.4027896429889306,-4.717179334049729,-8.633305848954569,-5.145528062949446,-4.839169804779532,g
3.4385721561004936,-3.5000075815329907,2.2014974642163376,1.1930120334751144,-2.357484926007733,-8.641699255363639,-2.8047167833434323,-3.870407421976006,g
5.738380072424849,-1.8997281227969733,3.988493369760542,2.2841570990908036,-1.3987389225202178,-8.703735611890677,-1.8921458869126688,-3.4055674643737937,g
7.4784671729069405,-0.5013872150539177,5.452372459672814,3.135851429152218,-0.5375152175685753,-8.4828797125106,-1.0843290177971183,-2.9927349231935074,g
7.478467172906943,-0.5013872150539175,5.452372459672814,3.1358514291522184,-0.5375152175685753,-8.4828797125106,-1.0843290177971185,-2.992734923193508,g
8.38210149837542,0.3982818000106804,6.292114884449061,3.4741645332034707,0.10542543838006804,-7.880644735463652,-0.46825736986459054,-2.693923072637202,g
8.245102941694935,0.5257955520747908,6.253902786594848,3.0916972404586804,0.3676300648792134,-7.02120124769183,-0.18431861903966779,-2.588512568361085,g
7.14896006686291,-0.09809513100469228,5.378190722445912,2.0700353461764713,0.22424044478013658,-6.118558603372624,-0.26233622478220847,-2.69620878538902,g
5.479136595922759,-1.0934631958777652,4.042720367552922,0.7871738427133153,-0.12898381143727225,-5.2678443861352235,-0.53142956636152,-2.905302146476262,g
3.7147460113048902,-1.9544622397049156,2.7454424867534906,-0.317946077114332,-0.388326590317866,-4.373845168170654,-0.7152515986778847,-3.022002303889551,g
2.162181770527105,-2.3963114604015003,1.7992229791006895,-1.0270891855679027,-0.35822851704700737,-3.283320772350314,-0.6339527553991313,-2.9207953702727822,g
0.8410889275428438,-2.516732889205872,1.1753603620959256,-1.4396047170366206,-0.07856259952948366,-1.9713685156409355,-0.3240285609333256,-2.6311129510464086,g
-0.4175511522128527,-2.660964871771727,0.5908419186346875,-1.8313973796915917,0.2317651509898945,-0.606077739088936,0.015038860930198971,-2.276029499729632,g
-1.773315468063765,-3.1480827515820686,-0.26030210704131107,-2.422976210584299,0.34009288398235765,0.5331015716235926,0.1685348997626424,-1.9706848277280802,g
-3.24028734586049,-4.075537877084332,-1.5103823874465578,-3.2466091922818037,0.13644773437472973,1.1990902600742523,0.022643115935060985,-1.801025526220539,g
-4.695376968520973,-5.28719029209244,-3.071955276786613,-4.186411598571115,-0.3350442157309462,1.306283867574138,-0.40443987323243624,-1.8477860444854421,g
-5.991914796259119,-6.479765530726752,-4.737160492951711,-5.117345932419591,-0.9420405648290323,0.9843099368044028,-1.005111730058689,-2.1664581819440896,g
-7.069353470013904,-7.390932387967891,-6.327298743363561,-6.007952266926884,-1.5704309676096797,0.49905247089112076,-1.6669505821199693,-2.7419650129415167,g
-7.974812558546948,-7.969583390578251,-7.783401827518345,-6.9085886978578275,-2.1960914400267586,0.06727656471361991,-2.34617868022633,-3.4914279671422563,g
-8.80019855062195,-8.39875735865365,-9.149867818452948,-7.861748490273162,-2.870874163198138,-0.2854784195482692,-3.072175494853602,-4.306876911952979,g
-9.601720653582145,-8.93549514571027,-10.48761768294381,-8.835764784180688,-3.644076246061997,-0.6913197402291069,-3.883654325522278,-5.081570447967613,g
-10.35129331212246,-9.693205539867568,-11.787820231438124,-9.736909747796517,-4.494792554736586,-1.2733931720239973,-4.763410610956837,-5.723770935792143,g
-10.917025959265926,-10.529813672902673,-12.926966834681043,-10.457804892809135,-5.321032320379657,-2.0086507420889577,-5.620620485897836,-6.183855710061255,g
-11.065119990768444,-11.093737193165458,-13.669394513379572,-10.893222996154261,-5.966512841416977,-2.7200909832680193,-6.304946431074585,-6.454501962137843,g
-10.513784133500323,-10.984561038054595,-13.726108014651043,-10.925298908476814,-6.259506852865063,-3.1780889762633,-6.634178518449049,-6.510785945741579,g
-9.064198009332484,-9.971009638996446,-12.876245980102974,-10.441739850794596,-6.0731084845814625,-3.2446036119464097,-6.458249038713992,-6.273431752965606,g
-6.752257782225854,-8.1741726273819,-11.103532048739021,-9.409376083435843,-5.399860274423306,-2.982419030612646,-5.754104169657552,-5.688930148556969,g
-3.898628572078821,-6.065716794423927,-8.646818672234435,-7.935493435540591,-4.375435599474244,-2.634221150688706,-4.665472891339474,-4.847821001995723,g
-0.9852854578695828,-4.209852542247125,-5.903941445809399,-6.2375404252989455,-3.2001129499283025,-2.442964154593492,-3.4173516742732892,-3.9684982778152977,g
1.5722180553014984,-2.912525976100869,-3.2489777982440176,-4.532279799442508,-2.0129086063377213,-2.4487272178289023,-2.169058554745773,-3.238880273506587,g
3.59193561607583,-2.071283321778764,-0.8993472013906612,-2.940529274181048,-0.8359676504891571,-2.460765162362576,-0.9471265646193375,-2.6986741570694472,g
5.115111405138295,-1.348612623237101,1.0832475884748767,-1.485550962868734,0.3666909787990874,-2.2348031559618127,0.2911683091389543,-2.2778463002558293,g
6.250913651244302,-0.49636787492641343,2.696197141984803,-0.16774266993911544,1.5900232457457637,-1.6721954023112016,1.54970430010017,-1.9038936790162773,g
7.024328475700393,0.4420000916275037,3.910424730298712,0.9702521742995188,2.7461317057998,-0.8631707310853273,2.746367238113203,-1.551753367498545,g
7.355483807289561,1.1789505588721094,4.667940983911569,1.8531950850287244,3.706727003454587,0.017852469630948598,3.7513321860295292,-1.2303658665508983,g
7.16967304012794,1.4143867383284832,4.947690900900475,2.4430013081543285,4.387376524769773,0.8404267541382258,4.469632094914237,-0.9530543106799906,g
6.521022221277891,1.0826508745695658,4.823931821017443,2.7923861177200573,4.807113649341941,1.5811867159181516,4.907575765901926,-0.6994103374059805,g
5.610745896235705,0.43359009091278883,4.44893554623764,3.01729852780858,5.066981980081433,2.298351138462148,5.162550075316089,-0.3921591988933898,g
4.683107131566553,-0.1420471179488762,3.959497285556876,3.1977275483979573,5.242960478461081,3.0293581998615204,5.319126284992035,0.045045407476557074,g
3.8868471669873847,-0.42857875604859685,3.381018447750751,3.289356819230053,5.275374772748554,3.6830197938022,5.331508552520759,0.5669421385471755,g
3.2089265365722364,-0.568198975721742,2.6168025392255165,3.131244984069271,4.972402141785911,4.044118757581012,5.020502268238474,0.97298811870507,g
2.521443220987693,-0.9290234379374012,1.543341379521808,2.559105864680461,4.155716265617003,3.924814181818435,4.217135309716524,1.0504711340506918,g
1.6980303576538716,-1.7698657763678725,0.1416442356954451,1.5440574588326252,2.8356899514762466,3.334225105948191,2.9332951841409187,0.7661865923967648,g
0.7157468499549361,-2.9957979694799386,-1.4361115617252174,0.2523530280939534,1.2674658726840504,2.505237697784517,1.4112421837469862,0.3109151231108362,g
-0.3187973926715143,-4.191369876118873,-2.9108718751680955,-1.0169343684769454,-0.15620619233913297,1.766427803104819,0.02103983969786114,-0.023172421952996958,g
-1.2206743795783652,-4.877314538991542,-3.9944728815514936,-1.9688270268556642,-1.0938261269227847,1.378168602239415,-0.9099323169808106,0.0033550163195920023,g
-1.9718533583766487,-4.0594668764569795,-4.409024371549008,-2.4037456026171102,-1.189455953536715,1.7941409631723413,-1.0316799812422226,1.3325370465091613,g
-1.6913965610507629,-3.0315252819802225,-3.822588145938976,-1.997917194727222,-0.6871027664109182,2.213141663736682,-0.5318764479399916,2.327485560787034,g
-1.0359634279457488,-2.0813539321342374,-2.9240075529699614,-1.3715312205516759,-0.13324191465639626,2.411599894639956,0.02269896312405386,3.2326426979734393,g
-1.0359634279457488,-2.081353932134238,-2.9240075529699614,-1.3715312205516759,-0.13324191465639626,2.4115998946399557,0.022698963124054127,3.2326426979734384,g
-0.12295169104068979,-1.3354225437909073,-1.8812557472794473,-0.6466868250075055,0.36143445944688646,2.2694911801521007,0.5033935726863223,3.9278011211452126,g
0.9329206074271392,-0.6554522696300955,-0.784482772037603,0.12357712833168585,0.8206858326804334,1.8658344099439539,0.9199280203251838,4.425133030666194,g
2.057495381564762,0.1819549647379075,0.3716086699214218,0.9467521052103851,1.3299997746010497,1.386781973393971,1.359720588676478,4.784791613478985,g
3.2092516309194132,1.2816929449817642,1.6382944456765984,1.845357937985883,1.9499284704215494,0.9944164227630136,1.904840188303766,5.049274426058492,g
4.327639536461585,2.54971647407133,3.011951349643785,2.7906416570621566,2.657726725339825,0.7518998980715087,2.5618642006286336,5.240360620696856,g
5.284712435722353,3.736557539308824,4.345325664806107,3.651213720031427,3.323308792586926,0.6081325301488152,3.214055285233953,5.349383687858025,g
5.894527004770156,4.541985155981913,5.3519562739649045,4.206566321637651,3.7333509682245656,0.41953624259277633,3.6319508607150004,5.303027285244997,g
5.992256446184475,4.745937626772362,5.734248433489817,4.249283354857207,3.68228023397685,0.022352614994073327,3.5792327830762005,4.992295553601833,g
5.538347679144675,4.327398092379263,5.36928634899072,3.730532972682693,3.0985473593565116,-0.6562387252582134,2.968162379919753,4.393040234987195,g
4.675499029903839,3.497997579628037,4.4224904665673055,2.845003520390806,2.118134374995281,-1.5297357370164808,1.944504872182753,3.658626014480639,g
3.684725209608378,2.610665995075496,3.2896732426353266,1.9662785349170449,1.035520961012415,-2.3922445058426365,0.8233169399213841,3.0704791321172906,g
2.844303758459628,1.9910690951372179,2.378932420833463,1.438615427135489,0.14553853571904674,-3.0342903273710595,-0.08894032945265258,2.8806700868976507,g
2.2677774747548627,1.776740007209769,1.861219387309648,1.3471849659016002,-0.4356657058242985,-3.3560440520357835,-0.6781096391615126,3.1576605591611058,g
1.8371656477715153,1.8339323137670949,1.562546488871237,1.438182176931027,-0.8553249855218474,-3.429417968819373,-1.1000387027478307,3.7108305736741642,g
1.3031772163147766,1.817659925676697,1.0962744359979906,1.2803367120029545,-1.4309918071649452,-3.472239682975443,-1.6796069514336072,4.149707055203281,g
0.4999477696329107,1.3982957310961794,0.16551072821779772,0.5774720020433874,-2.405191384537485,-3.702444939186963,-2.6593063944972997,4.110614217249301,g
-0.48778600218659135,0.5316111553652255,-1.1813254124574322,-0.6022874264129077,-3.7155360965829494,-4.136367231432033,-3.9675892478791943,3.5391376507423296,g
-1.3499128028813252,-0.4657063315713826,-2.5459202313510962,-1.8708724335742333,-4.979599931424208,-4.5127848399078205,-5.212085649315435,2.7748073385556884,g
-1.764612288245398,-1.1474298975606494,-3.441000255570515,-2.806139683134707,-5.730977715259455,-4.458814772225415,-5.928728279006813,2.310710178678707,g
-1.6421800582254935,-1.297862815152029,-3.6213015978048957,-3.2453478362502963,-5.72421455076965,-3.777180897619651,-5.887012189740515,2.4265379832933047,g
-1.2143962508239368,-1.1134550669635703,-3.2426256451709654,-3.3593399091209775,-5.0777601026725705,-2.6080651509725885,-5.216813315069646,3.0199776904031954,g
-0.9014965777591533,-1.0718397556468822,-2.749582503819955,-3.4749251701712778,-4.178160316789743,-1.3527498184709175,-4.300626836510436,3.7370071413469916,g
-1.0512882245789665,-1.614723102775563,-2.589367218843218,-3.8076384818977176,-3.4465171532504315,-0.451828990959407,-3.5483019643368388,4.235185898241825,g
-1.7372326079418372,-2.875881050593813,-2.956036586707498,-4.313720111135189,-3.1270455846697702,-0.17099267308215477,-3.2011785318791164,4.383872019284101,g
-2.7592679963214577,-4.622988774800474,-3.7329215433507072,-4.762083305826533,-3.2126071589999556,-0.49539804564466133,-3.2595784800246363,4.312805270623349,g
-3.8327579209259186,-6.440616101488824,-4.649088324014071,-4.9525913277424545,-3.531033768879297,-1.1800991690684768,-3.5598519879394024,4.292245042653006,g
-4.795344835148522,-8.00982889282539,-5.499112658940534,-4.888974469987478,-3.9076725979014517,-1.927485618582482,-3.9328681419738265,4.506783642971569,g
-5.653715538555433,-9.24233914663137,-6.23333876528496,-4.755260500578061,-4.261668846478919,-2.553671179428691,-4.302648773631676,4.900370227811103,g
-6.452207271000567,-10.152975271660981,-6.862573474104714,-4.726285413380959,-4.5664954722202244,-3.0023539069096605,-4.643955118928536,5.246363750537466,g
-7.114952960162287,-10.634188817470465,-7.3072740977730035,-4.797361215144333,-4.752678537580014,-3.2293097078024373,-4.877630366323191,5.367010172239885,g
-7.420466614176016,-10.410154169502125,-7.360800771059617,-4.785615890108317,-4.679486579816089,-3.1191406698946063,-4.84394379754395,5.265009674585048,g
-7.121489043859237,-9.23510111254823,-6.798492180566692,-4.4773085126523124,-4.199033660226592,-2.524306453726688,-4.379328076145856,5.064755673887834,g
-6.089963501526033,-7.12102093540534,-5.517045574060949,-3.7691523072658804,-3.2310623355206807,-1.3579610068527654,-3.4013111343577953,4.8904755906822235,g
-4.369634622546024,-4.369631729900393,-3.5836324740507406,-2.692426323128357,-1.7881912114630516,0.3474056291347207,-1.9336040789889886,4.81455716820323,g
-2.1225950391755335,-1.406952702509696,-1.1821995296704624,-1.3375695353923345,0.03027325059794066,2.4163660749952873,-0.09399388349755924,4.855096060012982,g
0.45341702307023973,1.417927718289525,1.4666362298072548,0.22605461248991912,2.0472606491679866,4.534473033288363,1.923863960726803,4.9681398050193915,g
3.1560669146532465,3.9328501830738025,4.138967352061461,1.961956484907074,4.031344072996026,6.32918984657662,3.887750711479165,5.070128637759532,g
5.749348017488889,6.105038230376726,6.58971324811224,3.8103416471996154,5.748201467463099,7.533984714586914,5.5865042013709685,5.117151911541109,g
7.943945186450561,7.913124876581357,8.54314158789675,5.627433063926643,7.01987512381322,8.118169649950108,6.875026583309577,5.158923250244177,g
9.45920126707225,9.240828192216732,9.751044203903371,7.191101036713471,7.7654739034853275,8.259993406488839,7.684088324284595,5.292894849516492,g
10.150928519446186,9.902444672314777,10.103422857099787,8.28492337611126,8.01452674356401,8.188119210312601,8.017919241267474,5.578780460630461,g
10.099757411520429,9.786290321040266,9.699768830340712,8.798134929458357,7.884425707466953,8.025958038170323,7.950714183946405,6.01130808792219,g
8.890287717662039,7.708513525688579,7.74265183559793,8.354335368478914,7.0380881425219926,7.205536874748755,7.092413559189372,7.102945119465007,g
8.304969173861707,6.331260153510668,6.781115391991408,7.79375447767598,6.53845423889574,6.375900426782226,6.554240496378431,7.632934291623056,g
7.96844474476549,5.173328695136062,6.142189382670346,7.351393596416341,6.16245235744106,5.415702069888097,6.155391843823035,8.15699090180843,g
7.968444744765489,5.173328695136061,6.142189382670345,7.351393596416341,6.16245235744106,5.4157020698880975,6.155391843823035,8.15699090180843,g
7.936624705030577,4.496579566449274,5.981986880513902,7.247385908692617,6.091956969462568,4.677344944533637,6.084872768169072,8.793277011385804,g
8.150943651651582,4.363141693517433,6.324673273800746,7.548126716391659,6.429806002609278,4.461643374013987,6.42814671011254,9.619570784505372,g
8.405143280788185,4.534297480928503,6.978573293399309,8.09447728501103,7.063887432766881,4.763907802999836,7.046496994325888,10.507924844831182,g
8.383718353173505,4.562936881938134,7.566139875895004,8.56268624733406,7.6820873650365185,5.266414887984932,7.617654848122538,11.147773833499148,g
7.818721111009474,4.097127462934645,7.721732726397258,8.661364464040748,7.972985315203142,5.60873523223439,7.848752134097362,11.282870676132221,g
6.683991487206431,3.176318015088662,7.339965237731489,8.33501031378285,7.859148503379259,5.691876840567272,7.693658829861431,10.937990152110876,g
5.261779459691192,2.2636279228584106,6.665791963799093,7.804751519166532,7.562334088766282,5.755648531727405,7.390236711084812,10.425326151372557,g
3.980576498729465,1.9536926722747512,6.111283511261491,7.3839005781671165,7.425454667265564,6.181362613424494,7.271855079354421,10.13231658620297,g
3.1075616677012396,2.534041350865904,5.9048626715129915,7.188728311688588,7.604325310093044,7.172129387339372,7.47282371013115,10.237936420712762,g
2.533217161585985,3.7024166246387296,5.849666897925117,6.979441466622009,7.864421979918281,8.530702091863786,7.74368357570814,10.529264061550741,g
1.8526549780170292,4.688499998223783,5.422879601371553,6.295985801171271,7.677113924574597,9.707319775608244,7.55455771035098,10.47127620061068,g
0.7181265532638452,4.76758544557041,4.182010348438138,4.819514406504854,6.589401055788048,10.125420136894439,6.461632852429801,9.560354726780217,g
-0.806922840779001,3.808975285676874,2.165644887443623,2.6799338563978203,4.591542722506571,9.56177752373861,4.466523290290288,7.7337991701967415,g
-2.190958282348969,2.3999438438296967,-0.04944616578170482,0.44857821639724155,2.175252950882248,8.273262033502895,2.063344021563418,5.473133827545159,g
-2.7391445598908666,1.4197804500252913,-1.6936995068788114,-1.1892290777253158,0.0322367792132404,6.775952469098601,-0.06930638846854764,3.48426155003889,g
-2.0268223710936564,1.4253783435737497,-2.274110041292164,-1.8206193737819412,-1.3500469905981023,5.498337044677373,-1.4643100216563827,2.2459598303541166,g
-0.1317170872717975,2.3510810977279646,-1.8025920766118886,-1.4554084459223993,-1.8807870336908619,4.600978600633787,-2.039915827881363,1.8142322452239363,g
2.4841882487810265,3.702408186833467,-0.6454987191339039,-0.3632305417098349,-1.749225064834511,4.038165213528566,-1.9738420792901024,1.972444890293908,g
5.305285483357681,5.0053357390125015,0.8279751726029974,1.2157579703038148,-1.156552172388367,3.7231835733694125,-1.4444446375325186,2.514083807423866,g
8.024198448556518,6.1327959870911375,2.489230928774931,3.219352860700302,-0.13418940157495268,3.645932278894121,-0.464485480748308,3.4179145029977014,g
10.557156061141626,7.2905991447731875,4.4098401101099896,5.65969111865094,1.4205768860510406,3.884560404548286,1.0758434563006785,2.84851557344791,g
12.868654421055155,8.716539104154105,6.61922820931572,8.399411892332395,3.5429093959483344,4.51762022518258,3.207396844188829,2.9047398040250783,g
14.809282985929347,10.355764468009351,8.903883267502758,11.049969919747038,6.016283601204227,5.496293751435028,5.7009919090110674,5.257256027358627,g
16.11920132888907,11.792894129248735,10.833488945019386,13.112539939472004,8.377137277023479,6.589211393621071,8.080582063170805,7.494440163276948,g
16.5762811493509,12.502218576853775,11.987967830955641,14.245654074652473,10.119277921939139,7.471312921485094,9.839965886564844,9.058503292287037,g
16.14318349717034,12.191098260253385,12.188566638557031,14.424225862017185,10.936542970085947,7.88604546812144,10.68738937603855,9.637851516757737,g
14.98627011499481,10.945020423554634,11.550449974305105,13.863808817361889,10.822963041533173,7.738617931026377,10.62997877191929,9.268321750325427,g
13.357317076521545,9.09828749503362,10.340167878786394,12.80170786872834,9.990112452844674,7.075531229451691,9.874024970254798,8.188421876256786,g
11.438402264324022,6.995060693740943,8.777485384732994,11.339366551072114,8.704101470815484,6.025383428726738,8.664425096141505,6.652215579963952,g
9.273531354578685,4.8339575710893765,6.941334980703559,9.470523268079466,7.1666789773094335,4.759776515317572,7.184367231968315,4.8620477354822835,g
6.837269219116626,2.661568948328913,4.831664889281699,7.241670000400501,5.495085366361013,3.455702818383814,5.54846617025419,4.958397931926516,g
4.176863827472554,0.47691817150502536,2.5076575459848933,4.875987089770687,3.7801793405540574,2.2482715808781566,3.8583383170898444,5.088748318015847,g
1.5031470389387378,-1.6314411058446523,0.17218281267457786,2.731748209795542,2.1572737849635026,1.2150851688008413,2.262348659103975,3.546194536224739,g
-0.848169003569158,-3.4192500113012825,-1.8687695525857173,1.1236427586796232,0.8178749017174567,0.40738097673558205,0.9563882940784548,2.37511557790312,g
-2.55463075715058,-4.567673078776097,-3.3350944175621655,0.16601361203643422,-0.06027183358464481,-0.1254470937911844,0.10739245680886773,1.6244037584433937,g
-3.4449772016623705,-4.867229260359386,-4.09191823237439,-0.22969188821346917,-0.41015412327579004,-0.3577396026686723,-0.23864471067002854,1.2206708880527204,g
-3.5535127138536025,-4.354843361499873,-4.187717767143213,-0.2275623286395582,-0.3190315215391855,-0.32282913980919925,-0.18087245879061492,1.0062708101227722,g
-3.069848029033902,-3.298953778587632,-3.8086587983746782,0.05059018098214172,0.008492392636428248,-0.11953256709005262,0.09090875708131362,0.8408637892892615,g
-2.218526097080516,-2.063780005466948,-3.189011323764968,0.5383646102606173,0.33358414478844345,0.10279863056077394,0.37237956809301875,0.6497376440035121,g
-1.137239808184434,-0.9491801089527259,-2.5184042836135423,1.1692366068982227,0.4717971831660722,0.17218325976994514,0.5042943135454616,0.3786434836072704,g
0.17194248998159048,-0.07509379680336914,-1.877529301346448,1.8489600527289098,0.3638364960102297,-0.03812763108357927,0.4220652659501679,-0.03463283380611939,g
1.7845278038492878,0.6442762341810818,-1.2298149959639144,2.4939570953830574,0.09882294778551795,-0.5122889587777822,0.18652603646639726,-0.5919827100547111,g
5.88104168090466,2.349675817796358,0.4262480760684575,3.66666022073043,-0.19531022989500252,-1.4239559890297575,-0.12205819332853621,-1.5554036636958755,g
7.9578577712600325,3.4443946311324836,1.4225179768141003,4.274952540418033,-0.028926033978609045,-1.451977919839672,0.012673291168549072,-1.6340946023984109,g
9.603449557663609,4.520932882855602,2.314482603309416,4.8594024017529245,0.25350397317262346,-1.1904941006704193,0.2833239982773379,-1.427763154797213,g
9.603449557663609,4.520932882855602,2.3144826033094166,4.8594024017529245,0.25350397317262346,-1.1904941006704193,0.2833239982773379,-1.427763154797213,g
10.529221228532169,5.386024492071906,2.860515590103227,5.27244551168196,0.47724496695706087,-0.8286332166331164,0.5363493284069657,-1.0791688751822093,g
10.625136167150163,5.903824351136604,2.8979671806198595,5.356566507052898,0.5069400307787829,-0.5580058281019126,0.6282745306887387,-0.7543958260821437,g
9.99085297157987,6.025669342499418,2.4448177949870478,5.068748004002615,0.33749746615584375,-0.4402851533787313,0.5168358196342868,-0.5493043157467868,g
8.88149607760941,5.822606039020876,1.713688413017099,4.541424184141744,0.11638646484012846,-0.3536063288193755,0.30998316630691775,-0.4238441423381386,g
7.607124076121695,5.506058367859516,1.0192228740791875,4.024066072820206,0.06609189824339752,-0.06923594819344703,0.21903896332378103,-0.22430520554931035,g
6.435382700146969,5.352781910154935,0.6234458720382013,3.7469248986558688,0.33863073871415794,0.5598146223275174,0.41988509520613954,0.17955785323674567,g
5.527860520157288,5.533704668966393,0.6104239242863889,3.809318721034437,0.9075331574111379,1.4396853002179895,0.9255183477541333,0.7582822738922816,g
4.919136354437555,5.9793802863716214,0.8695929235623829,4.162962141203938,1.5887737491969083,2.265837229232142,1.5817238406769745,1.3432211941551266,g
4.538185000889885,6.405536662326504,1.1948939232345677,4.675273453405933,2.1689598077810035,2.7324207131480702,2.180182493623081,1.7790875514844433,g
4.267445815892616,6.488383652236459,1.4301987437817119,5.208770115632757,2.5307500704481827,2.7376083844487304,2.582757039078034,2.0231080494694416,g
4.023951072201754,6.081267330673149,1.5691945054240524,5.674047703047064,2.6954686523244247,2.4339975472432163,2.778079751467278,2.1029619678014964,g
3.8279518151673835,5.349383269294849,1.7529245833635911,6.051690129800975,2.7869137358279463,2.134672430236433,2.8702084282175138,2.039624568701732,g
3.8108291013118163,4.7200649853109615,2.1653070821247655,6.382002358557151,2.953645301934233,2.1611590114208146,3.017896779583998,1.839750800015646,g
4.131153356902883,4.629325764750233,2.882291220488878,6.71423044589867,3.2785684551246868,2.6916112104062506,3.3347422824638953,1.5176297252616777,g
4.827528770196304,5.212080007421269,3.7673521363730655,7.031326478740125,3.7147057990436254,3.6656709181117586,3.7969927765549776,1.0796402355303918,g
5.70418604715813,6.179913034806418,4.491275239763819,7.202245098051646,4.092440694360361,4.816402093557231,4.233036474051651,0.5014509902440105,g
6.351830435451971,6.989898878659936,4.6736078524336815,7.007783416249913,4.194543751044668,5.817844333252312,4.405530523805936,-0.2574869277796764,g
6.322400071075684,7.150051586827084,4.0533608950461275,6.234619366328581,3.8367997776616654,6.419420196432642,4.1105325540837585,-1.2377095782141017,g
5.359655840320872,6.424628993651558,2.5816618822951183,4.783985014181259,2.9074228209058544,6.466451418432851,3.228432757428034,-2.491382157342176,g
3.535983127413045,4.854279223235705,0.3991794303655958,2.7315453722970298,1.3792430400478288,5.856652231789093,1.7373023978422029,-4.0650348537870515,g
1.2046624023663608,2.6616460059699767,-2.2589416526102943,0.3018369146381297,-0.6820312875742062,4.5349804795549975,-0.2841584026894057,-5.9215867154142305,g
-1.1979807834759704,0.1232081717052023,-5.161553948475344,-2.2291747801035973,-3.1295956403501775,2.526697475840801,-2.6787820567259435,-7.895410977739492,g
-3.3657698855413676,-2.5476351630963836,-8.134278440710697,-4.639287312999845,-5.78190966788045,-0.05877972929260302,-5.266958882274804,-9.768345910891638,g
-5.212405450945461,-5.248930768892744,-11.051240280377211,-6.801201648723186,-8.468561690337538,-3.0544483011765147,-7.890508207524901,-11.390504857977982,g
-6.7947116072369536,-7.926923191462896,-13.785484698070945,-8.64404982691913,-11.032100529201903,-6.2386929187144755,-10.401786602420371,-12.707109502929592,g
-8.149734996949112,-10.449366349714353,-16.16260462624621,-10.090474737985865,-13.296726014210497,-9.31760971593668,-12.626105102012229,-13.692453471443846,g
-9.181342851960254,-12.526745258482013,-17.956391954636114,-11.035999959999717,-15.049724241970543,-11.94147980068416,-14.35230915615345,-14.302429936955217,g
-9.680984414068856,-13.74876552543112,-18.933499996814266,-11.38477547466779,-16.058143299934972,-13.761808663454838,-15.358762412754615,-14.482503904724789,g
-9.458890976521069,-13.72810936623677,-18.927869963274233,-11.10356462620338,-16.1175356628571,-14.490578073449885,-15.454562194302223,-14.178722742092315,g
-8.482694489709711,-12.306317839859975,-17.917290539980677,-10.250913394095068,-15.129553108964638,-13.966622517276425,-14.54096934386063,-13.349033635235628,g
-6.923549759272293,-9.730444121174479,-16.06765924431632,-8.966299012512199,-13.185020341070963,-12.254097931473664,-12.690754513359463,-12.02291104894218,g
-5.084545392544467,-6.6535643377051175,-13.707946366805725,-7.431606326534075,-10.587200684198857,-9.709906480490506,-10.183461103014249,-10.372648867845978,g
-3.271528329167535,-3.8775223170467483,-11.228465663055008,-5.831399685469362,-7.765246914785931,-6.902980946610443,-7.431638428554886,-8.689094622706165,g
-1.695622872290269,-1.970284563328245,-8.950797918626124,-4.333779936403301,-5.11929849478192,-4.387469450411362,-4.830498921004818,-7.257768862504567,g
-0.4529143644256344,-1.0348690124477888,-7.044839633714938,-3.087944871915666,-2.9024494569380606,-2.49119170503995,-2.639099662265276,-6.259548573669933,g
0.4410292238720105,-0.7889083034920107,-5.533657168729595,-2.2105793836615932,-1.202388474935276,-1.2646421289599719,-0.9564505840962717,-5.765926082830164,g
1.0148567520594391,-0.8512011802560224,-4.3632674983712425,-1.744407294310981,0.0022026258888232066,-0.5786738405798426,0.2340341487502613,-5.764055372770753,g
1.3355383941868033,-0.9957363765640703,-3.477928921989169,-1.6134364631925568,0.7715666804436818,-0.2633312784922868,1.003259911583892,-6.154020554769466,g
1.5202578373114295,-1.2119936964351634,-2.8543047438769187,-1.624539640013452,1.1624657243693135,-0.20304816732503245,1.425861725026906,-6.761376987594673,g
1.7216960637360201,-1.5779028155854438,-2.492856003550148,-1.5433139166410152,1.2249930929176438,-0.3485118061797241,1.5572994641324471,-7.399722274663583,g
2.0556825349050483,-2.0802251852154936,-2.4029514798476748,-1.2195042985688884,1.0205522507400482,-0.6464196446186131,1.4434048691661885,-7.927887120675334,g
2.502815893007116,-2.549377492029304,-2.612193474167693,-0.6918729772102796,0.6189932298175083,-0.9630107977956281,1.1298794535303853,-8.259909016154051,g
2.8840959577008554,-2.714261899403614,-4.1983466357018715,-0.054259655085894656,-0.7167639713089462,-1.007596859389672,-0.0844403003043372,-8.370011830819353,g
2.339294520367672,-2.5229289234108747,-5.676301350006158,-0.4858455809667235,-1.7755268988085806,-0.7483698471120456,-1.1025947961650993,-8.424443785967025,g
1.2367711383325264,-2.4579488184976106,-7.504735881735712,-1.4775817098699255,-3.1317805905758345,-0.5710017359654191,-2.4184015214411843,-8.693373081870318,g
1.2367711383325264,-2.4579488184976106,-7.504735881735712,-1.4775817098699258,-3.1317805905758345,-0.5710017359654193,-2.418401521441184,-8.693373081870318,g
-0.2289072899574399,-2.676217994539652,-9.428215375963982,-2.7762123055205743,-4.63530634619489,-0.656647356064284,-3.8766462700193975,-9.15655148594231,g
-1.7856826714475802,-3.177183384679973,-11.138108070964616,-4.022446143990865,-6.009910527757624,-1.0168406412719688,-5.207950697188602,-9.625512615327192,g
-3.220844606022294,-3.874973685884543,-12.404882518784259,-4.932788452182989,-6.995171248450665,-1.5393067759549053,-6.166846720976529,-9.889619886761635,g
-4.443622150540585,-4.6744140231259745,-13.15893235572852,-5.410757682400231,-7.483851341531141,-2.124569866954592,-6.654894152339571,-9.854740093131324,g
-5.4408271345797115,-5.468189965137042,-13.456018686157455,-5.518481217257642,-7.543415749705,-2.780048267875745,-6.732840192929343,-9.569630953736356,g
-6.172833081879314,-6.095993564299123,-13.352008161798398,-5.34157173637869,-7.298470481213704,-3.59009568917151,-6.510631099345209,-9.14969087988531,g
-6.5051180590802575,-6.343849130838369,-12.794300308843782,-4.863558639737775,-6.762543784336904,-4.571417886338174,-5.993567759021358,-8.650355045867364,g
-6.2440597675378715,-6.0101924091852865,-11.638095632217762,-3.961692396930604,-5.769040796070217,-5.522815636457054,-5.016766445212219,-7.963540167188006,g
-5.257005668492521,-5.008103482939534,-9.795083753543958,-2.5368462915181467,-4.095226422594228,-6.030301696988439,-3.361295112019692,-6.848263094946324,g
-3.583313430760776,-3.4388350943076267,-7.398669875813381,-0.6740468857314399,-1.707957255743684,-5.689185625793675,-0.9935283816169417,-5.1380526289045445,g
-1.4528159157472134,-1.5681013062215707,-4.839158834418193,1.3033384387956217,1.0765140209115276,-4.3881782236941,1.7749415757657026,-2.9708501351034933,g
0.7962359949238881,0.2999146807420335,-2.6195968200388298,2.9447569227745847,3.679571958427369,-2.4026783541874708,4.372400205855035,-0.8041910966486542,g
2.8406112560801757,1.9518624483941156,-1.1240321711052217,3.884688917735339,5.547294235626862,-0.21348315278079655,6.251143162715267,0.8260438978306637,g
4.465293369476559,3.2816915705362923,-0.4556230849595259,4.018764275650036,6.422676308941275,1.776445819664353,7.153871241915871,1.591451889948527,g
5.587577540449201,4.203270810988273,-0.44512847494907,3.5322687245718107,6.415553199358548,3.3974417144657507,7.180962867296858,1.4849145380650615,g
6.221996381934577,4.592561344108824,-0.8026391815714277,2.77154593978062,5.855573933462621,4.672852168743702,6.651078829354181,0.7433162238217271,g
6.4329732847163275,4.350670770895781,-1.2870024596932452,2.0564093654317785,5.065247914275709,5.676062637041922,5.884445164742527,-0.31141385678668215,g
6.318835062890741,3.522424919806118,-1.7739489346051254,1.5642444679703935,4.215405012316012,6.406857025364912,5.056963684439225,-1.4174564487492916,g
6.022373590180709,2.3323347258200595,-2.208736595468288,1.3416379561173497,3.334542643066161,6.76141557990704,4.1992971115176205,-2.4403406926471676,g
5.717881115702209,1.0858019898139744,-2.5356780165046517,1.3813948383688097,2.4152556165784747,6.6071241264371405,3.300803161536728,-3.3267507448835176,g
5.5436531632390444,0.01228711493232897,-2.6990614953777508,1.65974043538194,1.495680319725399,5.898203590257999,2.3995078689373175,-4.004262949323406,g
5.5211643107062205,-0.826762155082266,-2.7079179969115073,2.1031550156244534,0.6493662604591869,4.732441100588609,1.5759789844098646,-4.35936972940393,g
5.5416700064797055,-1.4936869317303263,-2.6692656001122597,2.5542248847838023,-0.06697040676608154,3.3180073994308232,0.8925973480788427,-4.3277957633417214,g
5.4523142356082435,-2.0256213282585684,-2.7238824176778653,2.8125712174147717,-0.6191347181891114,1.9174059674119317,0.37942964314391686,-3.965756612787959,g
5.18331246412416,-2.3070671275508503,-2.929687017800362,2.740379500533659,-0.949150196150043,0.8201865380051908,0.08380573025634845,-3.392476504491873,g
4.816818038057965,-2.0913788019584723,-3.2020932982866865,2.3486528879426274,-0.9588725177946446,0.2990613059560413,0.09518870309935934,-2.682433669462706,g
4.542521409282932,-1.1689004865431365,-3.3705795459315775,1.7940453922342225,-0.5737831916305405,0.5028462454044619,0.48432689556044534,-1.8511746217598728,g
4.532657295838393,0.4644152863151049,-3.305035356343955,1.2886004579278887,0.16882758017854094,1.3563005888958284,1.2138568946663781,-0.9318250347296619,g
4.830397498629575,2.5761687090941914,-3.007283507747267,0.9865058886184401,1.1023660202356815,2.5828106634444636,2.120268066881367,-0.023231608307091457,g
5.333878510394696,4.797952263467552,-2.5959485952307424,0.9237999732244525,2.010775526335535,3.849718927541678,2.9908708223695166,0.7391665722909735,g
5.877017800608632,6.753307994561828,-2.203070145350682,1.0447568296628102,2.744890365558166,4.914546716917106,3.6741539811628483,1.2384323920011693,g
6.322445288693637,8.146408939741049,-1.8779150910385365,1.2768041348583243,3.287681296962076,5.673523611499186,4.145968114964475,1.4227420560271906,g
6.577438943985373,8.809081126487975,-1.5912418525851908,1.5728892581186982,3.7160360921469247,6.1143483078402765,4.483720660192202,1.3430993194709624,g
6.535686779054151,8.706508581015653,-1.339224503881224,1.878708290946506,4.079421583334806,6.226939677830448,4.753737774394344,1.1407978382935906,g
6.038696148447067,7.898455968858345,-1.2389973517179205,2.0729770747149265,4.292942169794388,5.934830520480347,4.893773220755911,0.947370878930502,g
4.9316805676834985,6.4879038326300345,-1.5033567614899828,1.9700030985399302,4.152439344400056,5.113179691014137,4.708359923168321,0.7790102999875167,g
3.179261289752475,4.596757965704923,-2.2991305111348015,1.4124792332532117,3.476833068969936,3.7065084027167083,4.005999074453216,0.5583431551745642,g
0.9368333209953533,2.3606487608992444,-3.609728561198186,0.38846948949978544,2.2548416311686905,1.846058474260395,2.7596661407153382,0.2477493811019548,g
-1.4829722770990459,-0.08211033252638274,-5.2153401938907535,-0.9196356171310048,0.6674810710308212,-0.16516085777884423,1.1439183974439224,-0.07112411755408701,g
-3.719749087688258,-2.5874296731105746,-6.7971445317826475,-2.194848303201115,-1.0166995176388647,-2.000447364131451,-0.5674960047094597,-0.25909907268454946,g
-5.481174945716239,-4.963142342148703,-8.081357127028207,-3.123808041619367,-2.5684118619047207,-3.4499758582494757,-2.13443657499739,-0.22712044049917876,g
-6.610038462298705,-6.9369457936763315,-8.927412655417434,-3.532432734103197,-3.8527154913956183,-4.441300065636862,-3.4137479718756167,0.02868613464281048,g
-6.9005038790193,-8.574544177992783,-9.231896272492875,-2.9053729898117537,-5.31409140382507,-4.979090903620017,-4.832877690127662,1.0373284143943884,g
-6.078493703848655,-7.967338325404327,-8.618138098590883,-2.0160946396190136,-5.247164469370665,-4.372739237105861,-4.767190379085161,1.7675980972237277,g
-4.5590823264919225,-6.426942197719344,-7.348005634432907,-0.6968027914754489,-4.4021148744474266,-2.9674226825666703,-3.9488854533766853,2.7481510402370852,g
-4.5590823264919225,-6.426942197719344,-7.348005634432907,-0.6968027914754489,-4.4021148744474266,-2.9674226825666703,-3.9488854533766853,2.7481510402370852,g
-2.320586129079121,-4.025869583879421,-5.369106546934852,1.1352307982674286,-2.676126268589454,-0.6402118938163515,-2.2585157534589353,4.070990782008245,g
0.5126021058948631,-0.8923839778744427,-2.838413201042532,3.4126504696083457,-0.19647170529957333,2.503282852112288,0.19555292389692883,5.670760117359885,g
3.5899352401003384,2.6988597302881785,-0.16262092424404812,5.811227544607357,2.6515635190893727,3.5896814401874315,3.030569131334146,7.24926149072134,g
6.360362935003793,6.275586687454448,2.102774005475637,7.806676484868262,5.344908453763365,4.545619980241448,5.711366582575781,8.395707742232183,g
8.230735422983823,9.238574388365333,3.4488952512165305,8.883917125412918,7.41056211501765,6.989408215782149,7.754850503904616,8.811928868667314,g
8.810206794501124,11.052579385548109,3.6092402459725568,8.785260616395519,8.568377204880699,8.236454146898769,8.884760040336781,8.452454735590788,g
8.105606592265833,11.472597198058505,2.6555762786098653,7.640304250785659,8.76974510506876,8.267066287484733,9.069324035975198,7.504249128604701,g
6.513447217110729,10.65422831510211,0.9275004551746229,5.873959010120655,8.131477886008877,7.319854246287032,8.445292465249908,6.262871263744567,g
4.574013294736724,9.021069521492182,-1.181764603438235,3.9361862114873896,6.802735761051887,5.718979132990071,7.171363515673913,4.971768139777216,g
2.6449895271200323,6.9458179182465924,-3.4498459748915637,2.0405073308479182,4.847337364565495,3.687788445822348,5.300286257623098,3.6865945160780007,g
0.7399148471480437,4.511028723436404,-5.8935964958607014,0.1053184547697942,2.2402484480580513,1.2798908702811704,2.7794981531869936,2.270705344235941,g
-1.3434707831249155,1.5856605816056988,-8.621654998056705,-2.0635853353869864,-1.0016334664967872,-1.5014422806331913,-0.3982521740075235,0.5763696912976449,g
-3.71557298740057,-1.8450913134837523,-11.584588458621525,-4.500525636583307,-4.6647127576049,-2.05624018532517,-4.022616021191345,-1.326622564100752,g
-6.163467373771655,-5.413818975387412,-14.424917760691718,-6.930850085534679,-8.307147158170308,-2.5804109707520246,-7.6370498538251494,-3.104955545606335,g
-8.183105209846094,-8.422040732244364,-16.556859870125518,-8.853020476389924,-11.388737529873813,-4.844841015423103,-10.686399372241869,-4.348264316253022,g
-9.249071316214,-10.17631397318632,-17.43568913689977,-9.787975964030512,-13.467731428676334,-6.1873885228821255,-12.725523605454093,-4.802354062048491,g
-9.117130917437937,-10.363921176366606,-16.841018126684695,-9.526314449594423,-14.34274943182723,-6.520225239997255,-13.559560624395079,-4.464796577551233,g
-7.945801064970969,-9.218189272937256,-14.988688963418241,-8.22327991784883,-14.080887347372899,-5.988807984809242,-13.265837180395554,-3.5343126796360487,g
-6.175007711123391,-7.37082763930448,-12.404715133632015,-6.304633545622985,-12.941225118982567,-4.8943296285617155,-12.112449345162908,-2.2973097175929156,g
-4.280505674085118,-5.4941560481334415,-9.658271702677835,-4.267689874969582,-11.247648048934062,-3.585735172003523,-10.424951244943681,-1.0082296465137108,g
-2.5863833856500773,-3.9847570066669555,-7.135689788046338,-2.5057335397792295,-9.286355951801998,-2.355970782479352,-8.479358853657782,0.18471540574617432,g
-1.2288051069170431,-2.8924009643489472,-4.977674736762365,-1.2307217763743057,-7.274160436519134,-1.386852134129257,-6.475768891676833,1.21248448769768,g
-0.2250098249819666,-2.066736516429622,-3.16104059943909,-0.4841190258509391,-5.370292037252495,-0.7439807359943871,-4.562684013964094,1.9947494141050612,g
0.4556165374551918,-1.3229659794583397,-1.617498678637983,-0.18821046675023628,-3.6714781029210384,-0.37174150034362874,-2.838595354862229,2.4217769285136077,g
0.8690030194237099,-0.5059983031094047,-0.3065916758896,-0.20859197414716793,-2.1873499856415144,-0.08382492725083956,-1.3239684698200658,2.4566384095736282,g
1.094129128894132,0.48255790563981804,0.7643575321638458,-0.42102009441014143,-0.8577622659457816,0.37505817911445166,0.025537670367296882,2.219444894008782,g
1.2048440670754954,1.6123587007932874,1.5445589547634055,-0.7685267089259556,0.36038006660478106,1.170995850198747,1.233781138427061,1.9160632984057429,g
1.2174951111569203,2.671555050325737,1.9581646727517765,-1.2764294293154408,1.404415383580737,2.2487864391307038,2.222543577858987,1.6794086808784847,g
1.0657426638897978,3.3517043014249785,1.945747605946331,-2.000906564901265,2.10674774357065,3.3678074373948013,2.8249976081961963,1.5009484390872427,g
0.6453688372005415,3.4462395247739708,1.5204529674656861,-2.9319115641046647,2.29334819906237,4.277908075105548,2.8875108270005856,1.3011091256849414,g
-0.09285913621121908,2.9925531967894665,0.7987453388174,-3.922548232968618,1.8991747284571932,4.867953179427431,2.372023228834514,1.0348996298022555,g
-1.0814332734278278,2.2262241492271526,-0.03504589235431745,-4.721070912007017,1.012283457213464,5.176951245351448,1.3850235624002367,0.7422251058773373,g
-2.1683092111702407,1.380619016082242,-0.8255673531836886,-5.110883798907859,-0.18493448130625664,5.298416144453414,0.11618545783077186,0.5302979530634658,g
-3.2211305500174623,0.4885515747671049,-1.5400944513995953,-5.063798296254319,-1.54024012521134,5.263126379075956,-1.2813207410698297,0.491799189377374,g
-4.211897066610587,-0.6513259241372601,-2.278269068807219,-4.779211307458437,-3.0322016407454506,4.96944797490848,-2.7908133756845452,0.588521858102759,g
-5.209770717405435,-2.2878082596527305,-3.1751613184613023,-4.56442073901678,-4.756881256134836,4.21845328081329,-4.51998280054686,0.6109798642144242,g
-6.293723859064825,-4.433010801819131,-4.264640354558038,-4.6394268008619175,-6.792138761106836,2.862904765388662,-6.560369980910039,0.30888712261426676,g
-7.455237193607116,-6.720892511169699,-5.404824257726615,-5.003489199395057,-9.041079257978684,0.969934917949508,-8.823851614383152,-0.3925890251924518,g
-8.550434740299552,-8.549836049190828,-6.31203860114739,-5.441079087248911,-11.180061107615943,-1.1442279087713834,-10.990001848183597,-1.2986280867392843,g
-9.320274142745088,-9.392728901624029,-6.665971227168545,-5.642840987713614,-12.747970998938989,-3.0319835824814336,-12.59780922194373,-2.055712404042274,g
-9.470719458641163,-9.017397064502207,-6.217425436997405,-5.357188016585624,-13.313855118070625,-4.274174127748706,-13.211521622216395,-2.344247532191167,g
-8.78393256487692,-7.4887429154171885,-4.855461256240311,-4.487677291673476,-12.633773246441443,-4.5887745303021825,-12.576719118730116,-2.0038926448103407,g
-4.860140329023722,-1.9561224388528404,0.31955324069344504,-1.2881240866640387,-7.85730349904,-2.3155031349421167,-7.867248412007965,0.32625725121170424,g
-1.9868556396904737,1.4817970766236879,3.7394337135673297,0.8089128560912551,-4.375547863263096,-0.1591046579803102,-4.427053574639161,1.9621825984227415,g
1.1382777512712658,5.012306189660857,7.382170145670069,3.1148467603042738,-0.6213482148600779,2.2449799260604295,-0.7283248755231859,3.7277079423146127,g
1.1382777512712658,5.012306189660858,7.382170145670071,3.1148467603042738,-0.6213482148600779,2.2449799260604295,-0.7283248755231859,3.7277079423146127,g
4.261213531159837,8.386536382685854,10.982401477996424,5.507628633179469,3.1326408678579845,4.6307057776174005,2.970964903512345,5.567501571708332,g
7.168572988597302,11.35128041942808,14.27040483653219,7.784768102860971,6.631284691281861,6.80069421783084,6.438605872696049,7.378235907300686,g
9.676103223735279,13.64935506651437,16.985951712461148,9.686297232097235,9.588744137260136,8.569813822095215,9.403910594673189,8.934416680505723,g
11.603311241582954,15.049747353589021,18.89986616590136,10.96229549397852,11.705313206370604,9.740992022937258,11.566830339110844,9.956374936902817,g
12.769188950239865,15.390938564671405,19.840937834596737,11.435596086749333,12.74274127093952,10.14113802912084,12.673372913102263,10.246028863795066,g
13.037096516533836,14.626736527131357,19.731648329262867,11.040896677180719,12.611502078890236,9.694371906431716,12.608020632328495,9.762585545864258,g
12.384236548408888,12.877127781770577,18.619181187553522,9.839447682652231,11.422570647828497,8.509191356679535,11.458320457357908,8.622256227203946,g
10.93188289039541,10.451881517018936,16.669349171233716,7.999266515889298,9.46293033982003,6.927825362592148,9.505622694601465,7.067966469648594,g
8.905967535885736,7.781960391505235,14.114708953056473,5.741230239697029,7.086365887263038,5.449301468740283,7.11762007995973,5.397455934215776,g
6.563560226314746,5.259161013298912,11.195638420694458,3.2835875273186126,4.580621594449703,4.51372497576523,4.599774464096309,3.835477086727488,g
4.138001845457351,3.1002874102124003,8.138744015322853,0.8187794975682042,2.107438007969617,4.291923525354551,2.1206074874160925,2.4396819846437485,g
1.8182565405264828,1.351147402628404,5.167968436892734,-1.4833364431670235,-0.2541414153366942,4.651799883631827,-0.24284954940209644,1.1433545160756822,g
-0.2547674046178514,-0.002151620556728062,2.5036593052366665,-3.477908360731206,-2.4349846072527748,5.302477952726525,-2.4222675379437297,-0.11603023628937068,g
-1.9891510403268768,-0.9527837888018797,0.3260690485131068,-5.064252676302187,-4.35945738374361,5.96112334083864,-4.340895450360494,-1.332218760044014,g
-3.334959468667086,-1.486646409193844,-1.2644763913034063,-6.198893955926671,-5.978853405347456,6.428648598808015,-5.953887562220744,-2.4673892521582785,g
-4.2572207631741215,-1.6193001511173875,-2.238853575424097,-6.878708056105358,-7.279529744515036,6.594069298890647,-7.257127555710087,-3.491478036800018,g
-4.694965015192152,-1.3846666005380535,-2.5763949504826393,-7.101802002839904,-8.233487681961808,6.420813718715792,-8.23050208415819,-4.368853436275386,g
-4.5432195229197285,-0.8041889593552802,-2.2081520098061036,-6.841017816266866,-8.745252460723501,5.920416853074371,-8.778886490911853,-5.049536176647232,g
-3.6990950532122766,0.10372630466713106,-1.036428178830036,-6.060215880958294,-8.664463656119926,5.120596865632354,-8.742638302601673,-5.496559156561647,g
-2.16317073868429,1.2812264056447644,0.9634109387908388,-4.77036745478104,-7.871554317009341,4.066479031622661,-7.981770804076137,-5.693213593355344,g
-0.12024366273614077,2.605928360108357,3.6329771362318697,-3.087450030895458,-6.3812618430504875,2.8528263168742773,-6.484250217149547,-5.61117354516991,g
2.0835718597506228,3.9074688051835174,6.608443025937819,-1.2437436381020512,-4.390299893569218,1.6226902352661299,-4.431589369866517,-5.212125598411179,g
4.073311157180044,5.021516507363293,9.424077422362519,0.47185451776699416,-2.219021835612872,0.5118339132820069,-2.1587883760737734,-4.507350641056694,g
5.598910816938616,5.862295706383636,11.686771799701598,1.8205875633085848,-0.16405798536681768,-0.3889780161213488,-0.0019799068356480378,-3.5815649481348695,g
6.599644232262325,6.457534765808104,13.207598377959133,2.7008072548298605,1.6346716372524692,-1.009311699909634,1.8636862854151044,-2.5260307732099108,g
7.140957336376995,6.883960979293617,14.004737704768326,3.151269102622435,3.1955870751878153,-1.2818375880633266,3.4508314246122276,-1.3768628597997956,g
7.290669973521919,7.14087706446512,14.194247861408698,3.269228935109209,4.563203000430252,-1.2000348544774315,4.8254593460994455,-0.15615161118487952,g
7.047401673374767,7.103032235474349,13.87213294556465,3.1143096249684508,5.675977138420697,-0.8849719362063062,5.951627232292926,1.046335655039399,g
6.378671990837475,6.628321160789634,13.079946124427854,2.678576575016025,6.3646277221388825,-0.5488591142525094,6.667371998883077,2.0690545812605263,g
5.321015602549072,5.713641640519957,11.856085059127214,1.9391256313451315,6.472346576127734,-0.3667933783235593,6.797620831024649,2.745468945068969,g
4.038540326874431,4.535073769665618,10.303233101281595,0.938107325096186,5.979576854736186,-0.3760572047752452,6.2904646072152826,2.9561921951111665,g
2.7770558589097893,3.3448009091664956,8.605976280511067,-0.18067649003405606,5.035669305178615,-0.47681534858371377,5.274693130985897,2.6552020872721673,g
1.7422614639198362,2.330970850621977,6.981609468862598,-1.2108136753592278,3.88411408153285,-0.5143299853088399,4.007729286326009,1.9054052422121717,g
0.9908996291355787,1.5354684620049024,5.592356116732036,-1.976001789177405,2.7320724219426444,-0.3976654079911512,2.7417348896326788,0.8835602056325266,g
0.4132944050751231,0.8552168590189568,4.473266475553156,-2.416093503513259,1.6485318046046729,-0.1999584925502744,1.5905391041912353,-0.2054230519946188,g
-0.1779852040394231,0.1261456850886033,3.5301802566843947,-2.60362935491758,0.5713344918846103,-0.15052340794702262,0.5058386463096387,-1.2388010707359816,g
-0.9096224719997181,-0.7401320300388902,2.622425444654327,-2.67121129147708,-0.5712887009715639,-0.47408683246628536,-0.6042530355707721,-2.1786431919283373,g
-1.749071937605167,-1.658369074579848,1.6814805470062228,-2.6961663275318495,-1.7247008101444208,-1.188349670336344,-1.718036462774809,-2.969704419002554,g
-2.511168007041212,-2.3980498489340096,0.7829808826974739,-2.6269585695372073,-2.67796644549889,-2.0501516265794426,-2.648715073619883,-3.474799779301115,g
-2.968216082673639,-2.714307182297027,0.1188934605255072,-2.312718258414855,-3.161715784569599,-2.703232041926326,-3.1333051785935035,-3.5243169362459965,g
-2.994315486005961,-2.4699478398722365,-0.11299121896423933,-1.6259041939417436,-2.987271211220031,-2.8837803360861742,-2.9731359465956766,-3.0103205438463405,g
-2.6450178335492724,-1.6776056600919182,0.17559107986537575,-0.5931026632949987,-2.1277683809956396,-2.5189625702482656,-2.124046271759731,-1.945689632213433,g
-1.5342821268262665,0.9615115425979337,2.031343788722464,1.6008732738005318,1.1227587345993442,-0.5127137108341371,1.1391134153936107,1.119019569506415,g
-0.9136750830608328,2.49742828246253,3.413974059428857,2.3275275121365033,3.2285303296171803,0.9413800198066378,3.242188912495338,2.600731279329265,g
-0.050631812121759975,4.134062471798726,5.11231272340869,2.8247101199253883,5.577909698921881,2.687730847637149,5.563917965643912,3.836716354324358,g
-0.0506318121217598,4.134062471798726,5.112312723408689,2.8247101199253883,5.577909698921882,2.6877308476371495,5.5639179656439115,3.836716354324358,g
1.2590444311436246,5.93628329000263,7.1669828306165755,3.308508461583172,8.114246356452016,4.713671228501109,8.048734540034046,4.838758677874594,g
3.011639416566856,7.8592593118310194,9.463196003883967,3.9257363153824953,10.620594853978327,6.819877598980652,10.491121832740419,5.6078117314347695,g
4.897028492463301,9.615446617133475,11.647224962380326,4.575799157570496,12.680409439278703,8.572923448285234,12.490861221559703,6.00117639747703,g
6.413829593330787,10.73444853351075,13.221784420203317,4.926720562150742,13.813630331849136,9.46286220345603,13.585741603525156,5.778764916179197,g
7.1367305319934955,10.796340222234175,13.78152013177853,4.632355741531185,13.706761681089038,9.154557017597757,13.473886117217262,4.781523420745453,g
6.954706327828044,9.671389946218856,13.228808135470558,3.5920584755462217,12.376409254455474,7.639246734925939,12.167502477907188,3.0713887982034933,g
6.103977242950332,7.59860040688051,11.805952129751478,2.047269493453778,10.159135044586062,5.21027109095369,9.984822821116788,0.9418594464731671,g
4.963543292191964,5.046411391980429,9.909766949750558,0.4289707928186239,7.536940529760498,2.3235630300201526,7.391434641687118,-1.185894742303986,g
3.7675480642016126,2.439887896505565,7.827414658693475,-0.9325883776320442,4.906048374111052,-0.5737234811945345,4.780508108479351,-2.942702548651372,g
2.460382663202025,-0.055630411575959646,5.601727302613886,-2.0106559994769517,2.4351811652215645,-3.1804825746866188,2.325662199139102,-4.188107464613671,g
0.8032701858831006,-2.5219982075003884,3.1273367257440854,-3.0405512038312184,0.10626602756905967,-5.3732242026165915,0.0105125996028697,-5.040788705358683,g
-1.3653962957981505,-5.055258173770476,0.38303494348671946,-4.274100629838172,-2.106485115015566,-7.109982316229129,-2.193853879125826,-5.698320868619059,g
-3.9280945142743446,-7.5250449295925135,-2.404574891271939,-5.731062029867067,-4.078815567157323,-8.30511144315936,-4.166091424836752,-6.2021166894834225,g
-6.493322578255897,-9.547198186905302,-4.803122020323293,-7.141468044212859,-5.533025985078698,-8.809851595399982,-5.630154511274278,-6.382351245953513,g
-8.58830466624919,-10.683110376202343,-6.383941769141739,-8.109810599000381,-6.175713216893343,-8.508729268837497,-6.294725241315028,-6.0182302410362825,g
-9.887479478224721,-10.685249840265133,-6.932755783896411,-8.356958213541613,-5.853218800731599,-7.419354608122686,-6.0066316950005625,-5.030432261192217,g
-10.31912034623981,-9.611827417340852,-6.511685747862029,-7.853988405714377,-4.621855506346281,-5.716864526204693,-4.819143175895188,-3.5503172372782954,g
-10.001501812058184,-7.7707103508914255,-5.3529641809360395,-6.772759202142373,-2.7166207657779866,-3.700804550564566,-2.964828706820074,-1.8714641057802595,g
-9.091059192481882,-5.559639962967774,-3.69179079629833,-5.328967399335568,-0.45496232123026853,-1.7287230561798907,-0.7626693428504187,-0.34120078159419165,g
-7.67513326065004,-3.2986222518185357,-1.6698334586961132,-3.6576717622536536,1.876198370521751,-0.10608497726582104,1.5012801662701025,0.7812381881458896,g
-5.78188219385748,-1.1399565614731233,0.6407519769344134,-1.8072785678833063,4.096446000122043,1.032807998401718,3.6577200543975708,1.436148353348981,g
-3.4750008057805504,0.9045501230481507,3.1458003879979586,0.16821347948882331,6.1306160620985475,1.7545383494810942,5.6474012532155955,1.7404926554085207,g
-0.942104166285372,2.8582150952204293,5.661148655092086,2.1110763779297637,7.94236889196925,2.2246819538758786,7.44032398860111,1.833862719514793,g
1.4938028075686778,4.676891713661362,7.918648955277014,3.744496464232678,9.461840729878976,2.5584113225549716,8.959160959985248,1.7458977323288878,g
3.4477075252161358,6.194727092564667,9.6323600748854,4.763424951953931,10.557616236855718,2.7370520193542345,10.061635623803939,1.4040517406218005,g
4.588495181229608,7.12589944828395,10.58083036242519,4.976588707857114,11.063053143868533,2.6253144171856273,10.57630793927834,0.7305412647150761,g
4.740636233549351,7.147926791893397,10.671511696309063,4.404567938391011,10.845566644014474,2.065134850100434,10.370378454513379,-0.28135311628193815,g
3.9281551559443946,6.081403367255892,9.96978896145139,3.2642342889531983,9.893298774201645,1.0089770390411368,9.431712180504302,-1.5358884850930747,g
2.3441798166598593,4.069563689038934,8.678047521117588,1.8458617280344367,8.36209100363266,-0.38466824853612164,7.915736352000596,-2.835285559902392,g
0.2614873381012872,1.5791702505180771,7.058020665516611,0.3640500067826215,6.523381420026037,-1.797603737900252,6.0938229463566085,-3.9457662962606883,g
-2.0734410793027966,-0.8381357688683446,5.321489591561363,-1.1186038479358118,4.629714559134206,-2.9427596766743442,4.216963055204436,-4.7296928014011055,g
-4.512231756115044,-2.8548144831337865,3.5498288286820214,-2.6506274557031184,2.803657315178948,-3.7394916734131294,2.4062042471644256,-5.227417666325524,g
-7.008362849670201,-4.500441044469407,1.700214945249033,-4.274022544251788,1.0434050286182912,-4.306868874087285,0.6633783342243105,-5.583440915290664,g
-9.554230252479309,-6.030049792235468,-0.29654566935988474,-5.921277981790212,-0.6707788193786658,-4.793286520130226,-1.0242048989887542,-5.8889051756058,g
-12.094131341413789,-7.645557815054298,-2.410022416784573,-7.403051803109747,-2.2686694006807597,-5.211796893329146,-2.5866848622984273,-6.109661889234415,g
-14.479615870174936,-9.268519054315354,-4.4504034189889605,-8.497723624634606,-3.565509310008204,-5.409674143332622,-3.8519151160234557,-6.151251092237711,g
-16.509578016015023,-10.517115948498903,-6.130247313330582,-9.081515740615243,-4.335193076457813,-5.169507431178312,-4.607607702727456,-5.966285537296605,g
-18.025758352755318,-10.918706675005888,-7.2100107130882565,-9.200505157095751,-4.430127117334074,-4.364282571847026,-4.707375787370463,-5.614717035870111,g
-18.97547800192374,-10.219855424568657,-7.613022738854445,-9.01720264803657,-3.8588054464335313,-3.067172130567074,-4.148885781935084,-5.2553747155381805,g
-19.377031861285694,-8.54980718878587,-7.412707291343938,-8.659948629582697,-2.7504808087218557,-1.5211735121710652,-3.0497380245765293,-5.0601262722272775,g
-19.218171430082172,-6.299633993679718,-6.706475740730825,-8.09400657858383,-1.2303340756992729,0.03644921328706765,-1.5293346597374247,-5.073056347246537,g
-18.39108730687251,-3.8401350369115215,-5.497965001114197,-7.130851757757353,0.6728655120007809,1.544925011745089,0.3836141882127788,-5.133399293058224,g
-14.23124589987668,1.1763521843681748,-1.3105474440016875,-3.474851183115257,5.614541357392261,4.771120665366053,5.3421110732197885,-4.489000778473048,g
-11.049231000024085,3.6572255187472313,1.4936626396428172,-1.1011892824217355,8.273470813205256,6.385741332975094,7.984205935873838,-3.7775715746321445,g
-7.641794694412067,5.878374777446349,4.256871236312169,1.0365551159522979,10.474322556116913,7.585098808664806,10.146269019396751,-3.1395605950206305,g
-7.641794694412066,5.87837477744635,4.25687123631217,1.0365551159522979,10.474322556116913,7.585098808664806,10.146269019396753,-3.1395605950206305,g
-4.538721343124996,7.469794524000075,6.424565545380164,2.469473159653681,11.729729280989046,8.002857174337414,11.348507109181194,-2.837775522837402,g
-2.1286023760124495,8.074640446250637,7.579282954939785,2.9659608111295155,11.760426937679586,7.479892149551008,11.319329763869854,-2.9699981758097644,g
-0.5300414406798165,7.547137218064208,7.607824980604289,2.5806802138590488,10.600890537992523,6.1487950039215375,10.098642583121995,-3.4527484754028293,g
0.34764326375498894,6.039321931396222,6.673820172893801,1.5226360311819085,8.52757420470374,4.342810162441938,7.97089981019884,-4.103251322349654,g
0.6248459385582731,3.8891545068303968,5.036984530507006,-0.031172293139690766,5.868546172706881,2.3867345988354116,5.273019376588433,-4.777418148175853,g
0.322781659019325,1.400685595333791,2.890017708523876,-2.0091495064936042,2.8574237796526467,0.4302421312918744,2.2380861389113447,-5.470266560996568,g
-0.6052623807632196,-1.2739794455151807,0.3532332807724103,-4.35198057767194,-0.3429114921851344,-1.5187790256769802,-0.9835020660019225,-6.263647312079855,g
-2.1290515527869216,-4.049252979766893,-2.3970830887390098,-6.860803858843259,-3.4935248063449693,-3.3883151333472674,-4.164474288212965,-7.1440036218985075,g
-4.030191168076273,-6.740987706954587,-5.022938202021896,-9.148657080932145,-6.188912808771008,-4.892667180867734,-6.8970209774832965,-7.887214302476084,g
-5.933703635559253,-9.017186077223764,-7.070815886712242,-10.760241843959994,-7.945301019432534,-5.624403844813248,-8.682731982267798,-8.154929782334658,g
-2.3590229886337397,-1.2036500877827518,-2.8616503482607465,-4.733173541438223,-6.189949993057448,-1.3432874210058865,-6.4715558206989865,-2.2863343158870517,g
-3.640691490972204,-1.5011815327679792,-3.7854263624559357,-5.683980933540242,-6.844267596301343,-1.7291128232833515,-7.086409387198751,-2.5169594980727537,g
-5.1184579921515105,-2.0655209334837705,-4.669758907044857,-6.542608222207268,-7.466093769955419,-2.221200833687625,-7.657378536118607,-2.542444087029973,g
-6.752358004532771,-3.0092029157586935,-5.5227584904191005,-7.171003470746527,-8.016040922064828,-2.7152414727770324,-8.14615204975245,-2.1618325577362927,g
-8.4960571038249,-4.417597426720333,-6.417521490880655,-7.594370757900991,-8.596132802759007,-3.244315913011266,-8.658666664773271,-1.4482126113525282,g
-10.27266796140771,-6.247299287353661,-7.421579638870634,-7.985855661933689,-9.339268674743167,-3.937479462180119,-9.336316964762478,-0.742891112983229,g
-12.00357360984151,-8.316078061328952,-8.563405769232805,-8.561972909193438,-10.284271818276295,-4.878250341204327,-10.226105369312432,-0.4250608704906371,g
-13.639163483417093,-10.390109601192098,-9.82745387437063,-9.43973111622218,-11.330640075644123,-5.9984728869461375,-11.233027271900728,-0.6635170025526165,g
-15.14648937455853,-12.286381076119486,-11.14540864060299,-10.539452109413713,-12.289332313456978,-7.099120084426085,-12.17198068883231,-1.3489836450002695,g
-16.469653607797852,-13.883359644461674,-12.382911694961201,-11.606747599993163,-12.969255757181582,-7.945901588351755,-12.851063939594965,-2.202895209009861,g
-17.5151537268044,-15.043427574344033,-13.357856830499097,-12.356304207503106,-13.241916117197443,-8.346133930547957,-13.131056130345694,-2.941850968698167,g
-18.455198468156333,-15.352144698427429,-14.010800328168187,-12.575564292172352,-12.552793804611577,-7.543366119194002,-12.429422429752414,-3.6977100758758943,g
-18.376901046092076,-14.424899535625475,-13.769328696331812,-12.393088653555166,-11.840352139131822,-6.59036501157931,-11.701276358706188,-3.9896061591984813,g
-18.08069705252236,-13.08396165035003,-13.397808556337662,-12.34014259412743,-11.130049280482055,-5.64480037227416,-10.984195673679247,-4.470057644243845,g
-18.08069705252236,-13.08396165035003,-13.397808556337662,-12.34014259412743,-11.130049280482051,-5.64480037227416,-10.984195673679247,-4.470057644243845,g
-17.67232285442666,-11.687753285018387,-13.048812326953149,-12.465115995883508,-10.545014398074283,-4.965692252567342,-10.40112202752073,-5.1085788125804665,g
-17.14981043318884,-10.44724114137508,-12.695585414716323,-12.57434055251067,-10.07995655575063,-4.639461539773704,-9.935022565944731,-5.664829774674683,g
-16.40099173487944,-9.31939907202426,-12.142025204438145,-12.348857968963548,-9.613206270009893,-4.548839009809258,-9.45219506372599,-5.830906398307114,g
-15.3159254788535,-8.115099006247853,-11.188518138600527,-11.568144751256408,-9.006439232974605,-4.457006320149164,-8.810066542958007,-5.3973460474166925,g
-13.940044814137867,-6.7637983525351375,-9.846174661686351,-10.297583784336327,-8.254030497428907,-4.184554986471399,-8.008786112248103,-4.375736600991983,g
-12.533429083853544,-5.520912162297018,-8.42574133080333,-8.902669413341362,-7.577076614075452,-3.787999455581724,-7.284535334419578,-3.057525236481442,g
-11.461675826770684,-4.892684332108078,-7.401358522686735,-7.860318534445957,-7.349983051200281,-3.5821697663671337,-7.028874685093595,-1.938728624578252,g
-10.979096752574762,-5.27434571103729,-7.11985360409863,-7.477571949893909,-7.862098471356889,-3.925240423614423,-7.536402569154967,-1.467045855032358,g
-11.054776840433362,-6.588226063229915,-7.554539167102426,-7.697406817755744,-9.075949474842155,-4.909200949959247,-8.756216329861829,-1.7533320212308943,g
-11.368088746891441,-8.255126311982817,-8.28286649985514,-8.120916602980913,-10.580242486586505,-6.228838182730948,-10.256703700140395,-2.4952988258486646,g
-11.49163316865223,-9.548955086102255,-8.718491004890538,-8.242718316733598,-11.794622739966478,-7.355539123215644,-11.44933239946805,-3.1907383296995055,g
-11.155885014896288,-10.052454704030108,-8.457812418818948,-7.762658680080817,-12.29079845109202,-7.868577838272159,-11.915295318215083,-3.457241392395318,g
-10.418527467310021,-9.866571481970407,-7.515742883532184,-6.774457200177143,-12.010064881583293,-7.682906414796878,-11.612576309852036,-3.2211363859078346,g
