Fz,FC1,FC2,C3,Cz,C4,CPz,Pz
-3.789262892281911,-0.14430689000197364,2.146145790385309,-5.4878127009217135,1.7140670234316717,16.689503079055097,7.187723521876957,-3.0064883023416487
-3.789262892281911,-0.14430689000197364,2.146145790385309,-5.4878127009217135,1.7140670234316717,16.689503079055097,7.187723521876957,-3.0064883023416487
-3.789262892281911,-0.1443068900019738,2.146145790385309,-5.487812700921712,1.7140670234316717,16.689503079055097,7.187723521876957,-3.0064883023416487
-3.7892628922819114,-0.14430689000197364,2.146145790385309,-5.487812700921712,1.7140670234316722,16.689503079055097,7.187723521876957,-3.006488302341649
-3.789262892281911,-0.14430689000197372,2.146145790385309,-5.487812700921712,1.7140670234316717,16.689503079055097,7.187723521876957,-3.0064883023416487
-3.789262892281911,-0.14430689000197364,2.14614579038531,-5.487812700921712,1.7140670234316717,16.689503079055097,7.187723521876957,-3.0064883023416487
-3.7892628922819114,-0.14430689000197372,2.146145790385309,-5.4878127009217135,1.7140670234316717,16.689503079055097,7.187723521876957,-3.0064883023416487
-3.7892628922819114,-0.14430689000197364,2.146145790385309,-5.4878127009217135,1.7140670234316717,16.689503079055097,7.187723521876957,-3.0064883023416487
-3.789262892281911,-0.14430689000197364,2.146145790385309,-5.4878127009217135,1.7140670234316717,16.689503079055097,7.187723521876957,-3.0064883023416487
-3.789262892281911,-0.14430689000197386,2.146145790385309,-5.4878127009217135,1.7140670234316722,16.689503079055097,7.187723521876957,-3.0064883023416487
-3.7892628922819114,-0.1443068900019738,2.146145790385309,-5.487812700921712,1.7140670234316717,16.689503079055097,7.187723521876956,-3.0064883023416487
-3.7892628922819114,-0.14430689000197372,2.146145790385309,-5.4878127009217135,1.7140670234316717,16.689503079055097,7.187723521876956,-3.0064883023416487
-3.7892628922819114,-0.1443068900019736,2.146145790385309,-5.487812700921712,1.7140670234316717,16.689503079055097,7.187723521876957,-3.0064883023416487
-3.7892628922819114,-0.14430689000197372,2.14614579038531,-5.4878127009217135,1.7140670234316717,16.689503079055097,7.187723521876956,-3.006488302341649
-3.7892628922819114,-0.14430689000197364,2.146145790385309,-5.4878127009217135,1.7140670234316717,16.689503079055097,7.187723521876957,-3.006488302341649
-3.7892628922819114,-0.14430689000197358,2.146145790385309,-5.4878127009217135,1.7140670234316717,16.689503079055097,7.187723521876957,-3.0064883023416487
-3.7892628922819114,-0.14430689000197358,2.146145790385309,-5.4878127009217135,1.7140670234316717,16.689503079055097,7.187723521876956,-3.0064883023416487
-3.7892628922819114,-0.14430689000197372,2.146145790385309,-5.4878127009217135,1.7140670234316717,16.689503079055097,7.187723521876956,-3.0064883023416487
-3.7892628922819114,-0.14430689000197372,2.14614579038531,-5.4878127009217135,1.7140670234316717,16.689503079055097,7.187723521876957,-3.006488302341649
-3.789262892281911,-0.14430689000197358,2.146145790385309,-5.4878127009217135,1.7140670234316717,16.689503079055097,7.187723521876957,-3.0064883023416487
-3.7892628922819114,-0.14430689000197364,2.146145790385309,-5.4878127009217135,1.7140670234316717,16.689503079055097,7.187723521876957,-3.006488302341649
-3.7892628922819114,-0.14430689000197358,2.146145790385309,-5.487812700921712,1.7140670234316717,16.689503079055097,7.187723521876956,-3.0064883023416487
-3.789262892281911,-0.14430689000197364,2.146145790385309,-5.4878127009217135,1.7140670234316717,16.689503079055097,7.187723521876956,-3.0064883023416487
-3.7892628922819114,-0.14430689000197358,2.146145790385309,-5.4878127009217135,1.7140670234316717,16.689503079055097,7.187723521876957,-3.0064883023416487
-3.7892628922819114,-0.14430689000197364,2.146145790385309,-5.4878127009217135,1.7140670234316717,16.689503079055097,7.187723521876957,-3.006488302341649
-3.7892628922819114,-0.14430689000197375,2.1461457903853094,-5.487812700921712,1.7140670234316715,16.689503079055097,7.187723521876956,-3.0064883023416478
-4.116498740645714,0.39160277466727783,1.9283193834318706,-5.867333301333094,1.4092905529739068,17.265332208700862,7.14653409502941,-3.3573762512561647
-4.544815775659634,0.8494764494283658,1.4409362860856254,-6.327092945942784,1.2490862299887318,17.63330905615096,7.0461007359153305,-3.5747792288918396
-5.031155862791601,1.2507627746248458,0.798033438462421,-6.4203179061306015,0.9656730314296056,17.873121609431237,6.9199157330134256,-3.700689985135726
-5.4857673395466175,1.623455476153363,0.17351123957875983,-6.455086867047896,0.5660616677920954,18.10750871218808,6.8351528443776655,-3.7594555641897482
-5.808721182612813,2.016413788666384,-0.29136494303321264,-6.409592917255188,0.5971634721350485,18.428338294290985,6.852043810421166,-3.7389498695122994
-5.926988840823101,2.4962321456744454,-0.5350300706803561,-6.278918252185222,1.0953569235503569,18.86283744011428,6.9960927801660615,-3.6007772164993215
-5.82385313958192,2.555420643687499,-0.5741164657688835,-6.3596029865140205,1.5526044845063054,19.383674226477122,7.24769494742137,-3.314904383861583
-5.556118627429314,2.6175308562414283,-0.48305714721603443,-6.298391568148296,1.9699980798373609,19.93642045299952,7.543928201749421,-2.897043768013159
-5.248193907624231,2.679012867235549,-0.3722579032362192,-6.191464331932545,2.3487794055487465,20.463905228861453,7.793727290610569,-2.42254123251228
-5.052332566129386,2.7365384312590715,-0.35943589040785073,-6.150552011579452,2.690339928816442,20.92501508768677,7.909784991035841,-2.002510165225794
-5.082696328404055,3.2115992585813613,-0.5285724976327683,-6.252650130317668,2.9962208879871843,21.31080483217392,7.848059683826263,-1.7319388476356976
-5.35648401233586,3.6012480406350567,-0.8904348782464487,-6.502185911464876,3.2681132925784646,21.65302766230342,7.632283326380599,-1.641182673878794
-5.7830183250144716,3.9413673928083495,-1.371838480449621,-6.830326038229419,3.507857923278538,22.014459983314804,7.344490612232387,-1.6841853965175133
-6.216953234548169,4.30261326994539,-1.85014067485431,-7.136838106816152,3.7174453319464034,22.45740247486773,7.083721311739737,-1.773245876190093
-6.548191659698721,4.746320971794504,-2.2203011447366676,-7.3519848420021185,3.8990158416118263,22.279815765945877,6.916449850929217,-1.8371499902475767
-6.77203599610512,5.2688640132733715,-2.456193388060888,-7.480240654570991,4.054859546475327,22.097271655357794,6.846864550212837,-1.8638302485302918
-6.992989950211238,5.324825556382962,-2.6268131814752955,-7.597987890059074,4.187416311908176,21.871078759812498,6.821043358584863,-1.9024514329771973
-7.357990250262872,5.849455306699038,-2.854854213687617,-7.806664222758176,4.299275774452412,21.551044033816797,6.759132287657706,-2.028581528476647
-7.5515808484557825,6.345810870590856,-3.241534525926277,-8.169754850912351,4.393177341820819,21.718978967443334,6.597572555075836,-2.2961126590834002
-7.815200270681423,6.815229760047973,-3.8024202636836617,-8.282384547109697,4.472010192896942,21.655177002519892,6.322409657762759,-2.7015071698092963
-8.08506045889444,7.254681410799699,-4.451818845889585,-8.425720723748691,4.538813277735083,21.43532477826536,5.979534220119578,-3.1768367661945676
-8.272064322199661,7.6769631532947615,-5.044694949410726,-8.87718088645595,4.5967753175603,21.8895360636862,5.655212783277119,-3.6156298333852726
-8.628283976611854,8.107598509041624,-5.45257007230981,-9.139171702572998,5.134641509515757,21.659490446116873,5.432370433127173,-3.9208846163485678
-8.624803153821494,8.547082920243616,-5.630946287244566,-9.190961300902595,5.652431716013357,21.47952290715659,5.343257986850433,-4.050991550481985
-8.368131037435425,9.496269752569361,-5.64059885122804,-9.096897487279099,6.179668890226375,21.28767339439157,5.346696021329733,-4.037056783490507
-8.039976437398842,10.286446126554397,-5.611903506243644,-8.968609599690362,6.721871241274942,20.985317397458722,5.347014923672882,-3.9610413284721484
-7.802640247561842,10.922532252717271,-5.674910300565177,-8.90750678137411,6.776307921637259,21.25983303890507,5.245484388384758,-3.90935988065935
-7.728865304316812,11.417063795367271,-5.896401710243249,-8.960418937246692,7.319298957749574,21.421691360640292,4.992634745965596,-3.9314667909774528
-7.790143932438543,11.782399099854219,-6.257115072879522,-8.73385393419551,7.783809047445194,21.48798038614846,4.609297858677262,-4.026287452371219
-7.899190745776064,12.05846321844104,-6.6766671440344645,-8.571969927372203,8.114812459527966,21.492104520785237,4.164865443018614,-4.159463956075475
-7.975412768671466,12.315288191813172,-7.069255048034006,-8.743890880607612,8.344552389974702,21.46571039153517,3.7271180908327715,-4.297947410663179
-7.997614495745407,12.596602378909733,-7.4001160726037245,-8.891202676713329,8.57400432275271,21.415766369943878,3.3139164098570415,-4.442543871964422
-8.018965157797487,12.874372157802313,-7.711706224836721,-9.064307503750044,8.870241095976853,21.316767570065707,2.8767957141936638,-4.6402782048083475
-8.137084074322251,13.078965484199799,-8.101168708047936,-9.348204704562828,9.211009514382926,21.13061908454038,2.329927910684079,-4.965189031340697
-8.43299821892657,13.160839681066989,-8.656876420747212,-9.43555373490644,9.525861589514484,20.843158289561593,2.008592340668527,-5.47078935664216
-8.910465066844782,13.114632795836133,-8.933938195499298,-9.568223876689052,9.757059389840936,20.493638430377516,1.6351592614438215,-5.681493759888181
-9.082924122146114,12.980336275788364,-9.235653627721703,-9.705807938505597,9.89538988398532,20.17982665063161,1.2502546567911776,-5.888825693577275
-9.563994155021566,12.855593964855009,-9.494270134416757,-9.789813676242908,10.017477642491203,20.031224312222893,0.9095381141397217,-6.043075210949219
-9.815958636828107,12.875307002322337,-9.967894141376226,-10.04469993387721,10.291116343963074,20.152606993795928,0.450290051338021,-6.329106138221238
-9.792453040920151,13.117039752309617,-10.138962123139974,-9.991008213606248,10.332163124599546,19.92444497549674,0.3289316101693755,-6.279307181014334
-9.581839034349816,13.025376696013588,-10.088849205690043,-9.723439999428162,10.382470486684156,19.95409261876754,0.4521245183067176,-5.991236853542823
-9.355433928848823,13.410083677252292,-9.984810816185238,-9.410052868982838,10.436541190937998,20.037828564546043,0.6458923611572931,-5.649032772358171
-9.260470283122807,13.650870039216363,-9.976357115355855,-9.192088752943889,10.488895744910646,20.000411821203386,0.7579465569805376,-5.412969883841268
-9.331140782714128,13.745169795711758,-10.109473207578368,-9.10999636641719,10.949834250465,19.774834125615122,0.7378499476429816,-5.332419893821472
-9.478345599473327,13.791128253520696,-10.315133996397321,-9.103812630564157,11.345416348387474,19.406943372869506,0.6411569950960444,-5.341185197254699
-9.557541562060868,13.911150864588398,-10.4694934689374,-9.076357737752303,11.865867713798927,18.994914203880747,0.5647209504326406,-5.32742003047678
-9.459493441941632,14.194624249655442,-10.47445701946342,-8.964379500351296,11.92989084751543,18.61701728391977,0.570081309647356,-5.217102143155207
-9.164594562060397,14.15982904153454,-10.307425945069616,-8.770631585240876,11.999943924757622,18.294228357800385,0.6480601528079574,-5.014157766675132
-8.739279042120275,14.140899752538708,-10.023385179473527,-8.550115520133751,12.068142558455541,18.714486951187993,0.7345164009937681,-4.785658817628618
-8.291745128316208,14.12971415558615,-9.721717095954869,-8.37308690146287,12.12550665047253,18.38638007442029,0.7516497857901026,-4.617587411741469
-7.917730436933854,14.005854207394343,-9.497880901695062,-8.28821585797673,12.49647087480848,17.982778695705125,0.6462898254341788,-4.570464962524306
-7.661952119690731,13.801871254465398,-9.399850394882101,-7.945898062863396,12.606355013720854,17.48784996100485,0.4108127143489536,-4.65160472560685
-7.511864968756962,13.553138028978838,-9.41098682244067,-7.938568170314279,12.616655018516154,16.919848820729516,0.0810052094626189,-4.814366826309397
-7.427353661020661,13.288033285052467,-9.473555172529156,-7.930504157221657,12.659420877853517,16.31249983521949,-0.2899410930738652,-4.622325947966873
-7.388130947377286,13.000234094467153,-9.540925074484763,-7.922805654482629,12.243091819721638,15.684417211099985,-0.6685707775582709,-4.769562941796455
-7.422505734059047,12.649993296596922,-9.619342171749262,-7.9176007545838045,11.950684181057504,15.022312891297295,-1.0619118120592226,-4.909871694832187
-7.589436975231316,12.731686088785272,-9.76233065032288,-7.92205332475884,11.757140155485127,14.296815582487122,-1.5008033103679463,-5.111353791358447
-7.92243263412258,12.77028601284947,-10.017867182693625,-8.017753092882696,11.604706379556895,13.50100690300603,-1.9957590148001803,-5.430220381877394
-8.379297908876733,12.740919212885386,-10.369970077176324,-8.204182188391272,11.443022156931487,12.677992896609046,-2.5029354227450313,-5.853472162685182
-8.42889637072118,12.690270135586037,-10.72462504161754,-8.40772778070446,11.296405595779726,11.90954956028775,-2.932866840923178,-6.291087294297361
-8.366324334711779,12.273898453572128,-10.95642936577246,-8.521005769806223,11.244651897023047,11.269493663806884,-3.1995622025889907,-6.626907387015536
-8.486979354622433,12.032978864325695,-10.984703363669642,-8.468336725979935,11.322512655365724,10.775307348395268,-3.2737696182260096,-6.790449774396828
-8.414750668239087,11.921337426455093,-10.824798615586753,-8.251477673462091,11.485468398265334,10.374140712053832,-3.201081453428228,-6.796521652771837
-8.246370343516878,11.851107116824313,-10.578962774594427,-7.9454354011758515,11.691820340715497,9.97310349760801,-3.0741499763776066,-6.72663196659157
-8.090450060654334,11.748407317140412,-10.374759215923818,-7.650145967202488,11.965231335667282,10.214619664770414,-2.9825358850040264,-6.671110498488928
-7.9997996315994,11.587704718429668,-10.293723912587284,-7.43281981565809,12.342311630315555,10.407975982496385,-2.9752563487465453,-6.67667209754182
-7.945829012654883,11.878723415655077,-10.335155971181562,-7.298377430314908,12.266451312845453,10.515056814091126,-3.054363436012449,-6.733008963493074
-7.848281479950742,11.682665372387556,-10.432181096873306,-7.20250155445126,12.211132338396117,10.525588905897392,-3.192149354623421,-6.79767827165942
-8.045199394399173,11.523614916064448,-10.502509299996268,-7.092431357421271,12.650464281451123,9.834950462688171,-3.3529354707420294,-6.832086860845425
-8.25856018790379,11.411755377222454,-10.499297031798083,-7.3343537815909405,13.01982190427721,9.19157509514291,-3.5082471458700524,-6.82284486177952
-8.472037189080469,11.32519674224693,-10.435981143987664,-7.578268829568268,13.27466092883232,8.591009818475706,-3.647182506894376,-6.783992326198926
-8.694238231683695,11.214047455173018,-10.379392989697807,-7.484697481478746,13.382370134582118,8.000506830006996,-3.785042433912076,-6.750626948685136
-8.639936276758775,11.017973306239867,-10.419156222096456,-7.531531275906416,12.867188819919841,7.370219214904113,-3.962792124306718,-6.769498106962797
-8.871143096158233,10.695394524950494,-10.624879111724152,-7.361825407936412,12.260144154120514,6.656104472560718,-4.22579730889502,-6.88138332912325
-8.833852928898146,10.254836730524461,-10.486069819413348,-7.218526497300972,11.546810874630363,5.851190729486309,-4.586138755852743,-7.09489388561827
-8.805914766246541,9.768671561351754,-10.32189564158619,-7.036492099530263,10.74739774221191,5.00552730630726,-4.995818844519416,-6.97149868944587
-8.543236239223624,9.086395537386716,-9.799394776784679,-6.427532110264949,9.715551103748492,3.5586675453122165,-5.201269304804196,-6.518094902218763
-8.344732591259426,8.99127446729102,-9.464472389428622,-6.420316344250904,9.155774529416442,3.0730248304995427,-5.273257459214724,-6.575061165861906
-8.56228527343096,8.976689602325242,-9.143115996314997,-6.414909432301532,8.750633412934764,2.703284809226608,-5.249227935278631,-6.579398457220134
-8.80338731600212,8.905298277076787,-8.883744876780442,-6.427760849398329,8.402196593474164,2.3498407306998543,-5.237474516241819,-6.621451135309331
-9.119457144933108,8.66951325160291,-8.69553633926468,-6.53092370215692,7.9585099890062585,1.9334004389788744,-5.317246695673264,-6.75799609871081
-9.119457144933108,8.669513251602908,-8.69553633926468,-6.530923702156922,7.95850998900626,1.9334004389788737,-5.317246695673264,-6.75799609871081
-9.46557521880198,8.257872055176277,-8.533929916334655,-6.349590349102577,7.294228620687501,1.45142481620366,-5.108562062963108,-6.9597351976248465
-9.725634692552735,7.767200522734899,-8.322706740308092,-6.105373446422728,6.90319846980481,0.976420230194655,-4.833497214824601,-7.122006963239112
-9.797054270259672,7.347317004929796,-7.999096986201598,-6.1093288024087515,6.532186100876321,0.5891045520477259,-4.841901859462847,-7.140422160274443
-9.67527683906962,7.10384275119792,-8.00888298185857,-6.107972169315536,6.246076774689683,0.2942170678482323,-4.846506642165135,-7.453464619304534
-9.860721216592573,7.021659957759053,-8.010113329557658,-6.1045978006600645,5.662552643903107,-0.010759487851889196,-4.850372290870899,-7.752252065402132
-9.736021007050063,6.972666590363037,-8.010114667491594,-6.104745759236736,5.234982030260338,-0.4803477769577924,-4.85909030869798,-8.066628100260209
-9.796521452036817,6.814747244882457,-8.09333200687337,-5.841188753028581,4.704872526007856,-1.214780092558318,-4.673040534487534,-8.17207357619642
-10.027918323788354,6.510338011336082,-8.330261214106098,-5.784035614394779,4.4078619245837,-2.1808840749536555,-5.081669331331754,-8.491794481240312
-10.311150412689626,6.65630014502284,-8.619917982534185,-6.154694991516339,4.122438375638705,-3.219437505279335,-5.575877656680141,-8.915214791829191
-10.50561553854524,6.451352270191149,-8.822806592000212,-6.470152286493109,3.905620878439263,-4.13550005191625,-5.978776616393965,-9.296248381671163
-10.541861632831113,6.49644435844477,-8.858428887238812,-6.663672847568205,3.811489731911402,-4.811574377117323,-6.178837934896599,-9.545729303303741
-10.464921659620199,6.745420060155251,-8.759251920205408,-6.762771699606422,3.4347465966371145,-5.272038387638104,-6.194444335152833,-9.680478872199762
-10.405368143413838,7.013214805804244,-8.649549961940089,-6.863703289490277,3.161725016723375,-5.6628782829755515,-6.157284803679938,-9.803846436974343
-10.499979224218961,7.092786935235811,-8.667932752615984,-6.641699210410167,2.6511685778742775,-6.163181365451736,-6.229037524019682,-9.632693463591066
-10.423370292187542,6.88996379704599,-8.882569982252882,-6.513865012674504,2.406498284183991,-6.880016787457929,-6.50160369537947,-9.552034027910022
-10.888019903899274,6.9799610558342895,-9.245459598812442,-6.501050170205312,2.058957911806563,-7.78228855991999,-6.935741380943914,-9.585416361080151
-11.348746083650353,7.14627004681759,-9.608092752657836,-6.859892778373716,1.8024460681252499,-8.70804098096304,-7.3717555621558635,-9.676998283845016
-11.619569758231988,7.4571456366666595,-9.791636981308576,-6.972007627612215,1.7520689879081675,-9.444533697973982,-7.610185015289311,-9.953248979311235
-11.584517197005116,7.543226215996608,-9.678228377981974,-6.724807328135893,1.5400079521768546,-9.84138202924678,-7.521507680845823,-9.890546184773012
-11.263702942360112,7.351310596882448,-9.273893633387702,-6.496807292132613,1.620321098028025,-9.891842346097507,-7.120463427475735,-9.510017049859435
-10.803438490723448,7.730700494791035,-8.702709427440919,-6.24758844071207,1.7293086456647908,-9.729289333111968,-6.555068600975144,-8.975316923991796
-10.388807863584965,8.045829075868195,-8.131664377995529,-6.090335612478291,1.7005196275264896,-9.539022881833738,-6.014050091259886,-8.867625813328624
-10.132902289732954,8.252302987454593,-7.673533920205854,-6.069543135677127,1.5419028992447008,-9.445496761025545,-5.6141648438826515,-8.589520983672191
-10.017930225718114,8.406376655631009,-7.332629551396909,-6.148917693234357,1.378886329296423,-9.453017749807294,-5.344365288284653,-8.496852191260563
-9.927655132643354,8.608760197760033,-7.028384155642439,-5.9663096362157635,1.32876856979167,-9.477433911413552,-5.102884222978108,-8.460473355581696
-9.744409556344241,8.923031109845216,-6.675815965633109,-5.774698986656382,1.3984206666521901,-9.439278562394696,-4.796783633833307,-8.344197176485803
-9.4387632174969,9.32501538504801,-6.2617957096272105,-5.532331134698535,1.4697569233096022,-9.346125451122184,-4.429772183868583,-8.113437515766481
-9.502712210240166,9.71734060344321,-5.861637279619853,-5.308228592736333,1.3802923030356078,-9.303395607453508,-4.114010994016532,-7.865071632788171
-9.634162470605073,9.994134075987182,-5.587568700837449,-5.2311772361917495,1.039946189267937,-9.448435186002285,-3.9987129626985167,-7.761150148246498
-9.552515010476759,10.104944457132854,-5.511714344333807,-5.398558413613449,0.49196849759269157,-9.859761545011919,-4.170375286608388,-7.918768766443061
-9.658466977122025,10.074979847399453,-5.62005062449383,-5.384436498526883,-0.13307899865779718,-10.507527041083703,-4.597287941522531,-7.9409478827804785
-9.875055248686865,9.977374459811834,-5.822743823649245,-5.463178443184356,-0.729584532594123,-11.273732601367314,-5.151488092037617,-8.02752695628998
-10.088516097570226,9.885061612490357,-6.002333710960005,-5.567344929487286,-1.2970643062102736,-12.017188143151934,-5.6816413047269885,-8.111853716678844
-10.198280523635283,9.835865182085755,-6.061676992580155,-5.940500596414397,-1.920660678647604,-12.63386598367082,-6.080934551679163,-8.484845020589733
-10.1455197131324,9.82998069558446,-5.946833368314461,-6.058839790976711,-2.136706200232335,-13.080935459982184,-6.3117456812619945,-8.64473036417441
-9.918197938590048,9.854421956578726,-5.646333843186948,-5.902326385971919,-2.441944207817851,-13.367744052677347,-6.389107708546312,-8.61076614151707
-9.543207079179279,9.907937110639178,-5.183069319178158,-5.514876862313125,-3.200396410655052,-13.536508762918675,-6.351637111167528,-8.446744264840072
-9.073864456809863,10.002289216360628,-4.608838571868578,-4.982526718245744,-3.701111827984241,-13.647868005852317,-6.244324142653479,-8.229704814914834
-8.573115117502374,10.143726418212218,-3.995521203612225,-4.403058318153442,-3.870071482366909,-13.767544044750942,-6.1138774350775815,-8.029105947205835
-8.091329120678374,10.32050324425458,-3.4123020332341194,-3.852286382638589,-3.7926628966416507,-13.945012666825626,-6.001603498839102,-7.8917939447425285
-7.6454011193026625,10.511040289796444,-2.8935608604898273,-3.3585400681314383,-3.6461897928724376,-14.189379902433073,-5.926811092654626,-7.827447743245704
-7.212881741606696,10.700556499499033,-2.4197038882122204,-3.3075804956390367,-3.5772282810302243,-14.461547440215742,-5.872577537788086,-7.8006631971159335
-7.27017356057813,10.888057295809553,-2.450607921310594,-3.3927431599152174,-3.623845246876438,-14.694593772902422,-5.79054743650712,-7.741197770382778
-7.3875489838647335,11.081271369816307,-2.541802227845747,-3.5521082643163435,-3.723815469881748,-14.831850444501436,-5.6264312394815965,-7.971247572137156
-7.503366399434973,11.287479316516492,-2.5994503003743956,-3.7023354720772126,-3.777482530233328,-14.857812340618182,-5.7387115924250365,-8.10135665534166
-7.589779426335338,11.506400919318228,-2.567182101385689,-3.786483125411461,-3.7148902739331544,-14.802389556077246,-5.360777226902098,-8.066667662711117
-7.674569660915589,11.731981398207195,-2.457236893326362,-3.802903357923137,-3.532187950504339,-14.715994187167983,-4.92138439337599,-7.523305236672861
-7.437020667651011,11.969725125882526,-2.328528929772033,-3.7946536310753975,-3.2772876825335486,-14.630645727268243,-4.4621250996734645,-6.967688772491036
-7.340098061230191,12.258330941827769,-2.233726782436646,-3.5192581437700694,-2.9923097510082006,-14.534482806591052,-3.998364510971915,-6.450172760029383
-7.285000461531083,12.664384615911459,-2.182149834247126,-3.2702606916397174,-2.6642390290408158,-14.383079156016624,-3.5183374854298473,-5.987552960162398
-7.175700991164453,13.236795862451789,-2.143582087072997,-3.3490737514601925,-2.2402189069993104,-14.142175040374495,-3.3821537321005803,-5.5823654484987015
-6.985409711313444,13.957432183352761,-2.0798760715024445,-3.4265407789540627,-2.1985125560938013,-13.822443789480976,-3.2931589076298295,-5.248185001446184
-6.759293959360238,14.741677147384614,-1.9744609659856462,-3.496006357108001,-2.194086759595565,-13.469143947148797,-3.236137661854029,-5.0089365687503715
-6.5540736746115495,14.982819948277672,-1.839266087508481,-3.5715272035909083,-2.1730453785197668,-13.116656506365054,-3.2037317376561187,-4.873394877285317
-6.37731693726035,15.138840862057934,-1.6976269701350575,-3.6676208798507344,-1.6975950510553794,-12.759280657405549,-3.194765572589535,-4.819266981923154
-6.183155211913419,15.244718284981012,-1.5585676394772898,-3.77827270850176,-1.3037582789192073,-12.372655060329675,-3.206627282187677,-4.809535335336524
-5.916661630407209,15.31121515353584,-1.0155186310585513,-3.8726136605137738,-0.9215548398056204,-11.961705697246707,-3.228531103211582,-4.820870634857912
-5.552769758390417,15.300908150943167,-0.47242865395717004,-3.9072308688105077,-0.5023859393888217,-11.580473445518937,-2.899185063366968,-4.847564565989867
-5.095393416314336,15.173957143777109,0.05455262280800266,-3.555732093233229,-0.0794450571791149,-11.301626190327358,-2.626280633678748,-4.87760138914946
-4.554274019853426,14.922511732751989,0.5597164616952439,-3.1640540934240007,0.23578197684772575,-11.167676427339803,-2.4186390585722664,-4.875659272704595
-4.393601533632248,14.565575137565196,1.056069607460366,-2.7163612932874996,0.32797562086953486,-11.169014152561543,-2.253308553528096,-4.7990673004033795
-4.207548033244006,14.150560694241996,1.5589661093574045,-2.2157086010591733,0.17547904097849248,-11.258077204148751,-2.0938669853664416,-4.628549312260289
-3.9339674776509863,14.15206597646441,2.068730622798225,-1.691738963652925,-0.10730241873615148,-11.373615134546945,-1.9080589576562252,-4.374948864396597
-3.24401291809905,14.126506790488477,2.571684066541449,-1.604541455025607,-0.32678033951722313,-11.453101912825703,-1.6686548105984986,-4.456758294371979
-2.9942895541088124,14.132494863896202,3.052971219063812,-1.5889153444177913,-0.3294943274311927,-11.439256426292557,-1.3498675799117636,-4.541550501631334
-2.437171221009771,14.198416718712037,3.501290266318436,-1.5559073672517092,-0.09416913335506182,-11.29716571995602,-0.9386926748628517,-4.536584508046309
-1.9826004456878967,14.302056713989602,3.898813978174459,-1.1002431045196188,0.26799431867124085,-11.039012491788151,-0.4585635381558567,-4.352022507048949
-1.6670193561753248,14.37762833892342,4.212002756117581,-0.6974716925341518,0.5968959051090643,-10.73037863667411,0.02108563685546284,-3.732498944736293
-1.5254960039095373,14.356685489605887,4.404152296831453,-0.40238678248940035,0.7882725817303483,-10.456743892646386,-0.0013129692904925961,-3.631311090637261
-1.5547258597227451,14.718982482236674,4.469106484114785,-0.2425621708779532,0.8503515263737301,-10.262981889746419,-0.1598110285555075,-3.6804808674784675
-1.6851183422246379,14.511828724876864,4.4569097591793625,-0.1799773479773944,0.8780324063786844,-10.111467237202366,-0.021317161339470196,-3.7745696755495626
-1.7971509470673621,14.318128535437046,4.4593590986466705,-0.12353811762305962,0.9674981481470907,-9.899314456599328,0.09032063876614436,-3.4966561604002147
-1.7812875860760555,14.199698462640919,4.557308594782489,0.009849821899782967,1.140406623737158,-9.528294838445888,0.2570001529211337,-3.19543128341512
-1.5978114312489191,14.162645731856482,4.770971090491872,0.23708906386575707,1.3392309247800727,-8.973123416137803,0.4940218212936586,-2.865430169736913
-1.288308142450981,14.168440155872101,5.056062689872379,0.5067089629763752,1.4912064929322297,-8.2932996712592,0.7465927310365547,-2.565165005588205
-0.9319486071370797,14.174100823111715,5.347928078603015,0.754838662099506,1.57859012432542,-7.582703502030373,0.9470631495822367,-2.355901634312949
-0.25724252198608377,14.163436795213778,5.872248639378927,1.203189927463286,1.8090789653154238,-6.245571291817203,1.2122478197275965,-2.11093840965089
0.08237931132038061,14.188392613820179,6.167595490308697,1.5430050300619627,2.0875994362406987,-5.560149075894673,1.4348630211928985,-1.8666345782149154
0.4571779589828745,14.232836842120784,6.531423331352817,2.042381735260687,2.4659619115689573,-4.790851935692715,1.8168942010316596,-1.4162608889112784
0.858286862406264,14.249439151154025,6.955930315280275,2.2624636008490975,2.8566661981301826,-3.9206667090374547,2.352407763211864,-1.1572656141647868
1.2401010760467897,14.180345842617879,7.396159233387904,2.501698976769575,3.178373632972903,-2.9815208145822654,2.966103118828551,-0.8613091753029127
1.2401010760467899,14.180345842617882,7.396159233387903,2.5016989767695748,3.178373632972903,-2.9815208145822654,2.966103118828551,-0.861309175302913
1.5415608554143518,13.99835362549596,7.7924846487989115,2.739857470644342,3.429220986765826,-2.037124354992615,3.5558735523403073,-0.5598425003961394
1.7182436441435918,13.722310743045536,8.096669779213805,3.2716891025711776,3.697215555559501,-1.1521793153673332,4.042675347703913,0.06161848628922293
1.765057697846563,13.391983332098592,8.286226082318473,3.6140957248825227,4.082511729159572,-0.36731684672585985,4.39560217298823,0.508548314561069
1.7139553349110601,13.024852837961541,8.361608229638719,3.7655240503972167,4.587713165667009,0.3074594842124736,4.621384026466378,0.7921282729155101
1.6089048861411477,12.592592091928076,8.334139535756462,3.7558205639543187,5.072980726498899,0.8833087875134698,4.73601736112967,0.9512324932428493
1.4797378054809909,12.039221668189642,8.219913684701934,3.625774125096873,5.3271271685431945,1.382270798434067,4.748992037651959,1.0225885158028674
1.3380635744988914,11.332705171820741,8.04781645241195,3.422485478048488,5.213008342441328,1.8392290273143233,4.67568209902231,1.036998833844329
1.1972195978334639,10.51568475611697,7.8725348262057935,3.209587078975712,4.783860281682532,2.3127816332399327,4.563531903844109,1.0372272740070394
1.0932856253321994,9.713747375494144,7.772879134113744,3.0725085684857127,4.281900064595612,2.8868786985284016,4.500120911665402,1.0899376138311465
1.0810209970296862,9.082644400496571,7.824939895581467,3.09973833269692,4.009030630633712,3.6480219222664267,4.583213077455817,1.267786310667818
1.2020010563337424,8.72134467349377,8.062073954929236,3.3423385748928918,4.149557721157525,4.642866775390654,4.865200150541762,1.6052976996774015
1.4505457306779193,8.609472185830478,8.44892790187562,3.7774513359228967,4.662476668926214,5.841064897143447,5.3094492113812946,2.059774544813178
1.7694702523341368,8.613487127341566,8.891050635462605,4.30647077993496,5.311976403080417,6.384049018590699,5.793009354362478,2.512681197730448
2.0850456166343934,8.557101248284237,9.279614619171474,4.798645944620945,5.805502350645892,6.817015499144276,6.161157977422482,2.822263764733242
2.356869340888109,8.310567081695131,9.547397126257591,5.158506092549012,5.943929739152367,7.137798411420777,6.305105985959978,2.900863976523196
2.6028634250559897,7.848125907318722,9.702356864675114,5.374838883388686,5.704454252429826,7.963202988455136,6.217920936184771,2.768428090151558
2.878684742138754,7.246960749961687,9.817374287490415,5.519208080618276,5.235492277014758,8.630147097516655,5.996446302784555,2.546808569966669
3.2294206740263407,6.6345398561564535,9.983220292512172,5.697619767677562,4.782506140561555,9.260099781061742,5.789929755038913,2.3993826405880254
3.6531919708875495,6.117043839186988,10.255341615584793,5.989911014402824,4.574816532093973,9.962030863129632,5.725879583358709,2.454819338935088
4.101335399736593,5.727115854352181,10.62522679001128,6.412853571910169,4.7139422666113475,10.772260405066733,5.851987534989332,2.7570440240821186
4.50721211963201,5.413095205520606,10.625956032548943,6.561313245228599,5.116927063711376,11.63684504627389,6.120553381383579,3.2606775685759493
4.818631806706586,5.580113566085124,10.973649274683028,6.717474872031116,5.555095964509312,12.443958277049132,6.4204211738576795,3.8652961795939706
5.016041330483364,5.614605985646259,11.198463299878773,7.160461238190496,5.777535111979586,13.088241930541303,6.6391232869750105,4.466526318685495
5.112512346935874,5.4338296876291965,11.279872490133561,7.494140035804285,5.650171602498349,13.530983392448057,6.720978366557381,4.99778937189632
5.1385652283716965,5.075817740130153,11.245084178740285,7.720319297836023,5.22398717464583,13.819734781302687,6.686846587119639,5.4434061832812555
5.119384982760433,4.665090758034396,11.14352250830343,7.865177943116955,4.690332621109515,14.055596850840816,6.605451528318026,5.822043381803423
5.059327576426362,4.3063203946779,11.016555189551509,7.956188501994636,4.259171019728165,14.333508129467978,6.541220808461289,6.159479142259919
4.949269445278861,4.025026963878026,10.887017717603882,8.01506365998167,4.048390850638881,14.700165647565775,6.519933748541781,6.47402321638057
5.252727913875464,3.7945388254157173,10.773091394616081,8.069995774914322,4.0550060308765215,15.155248913752853,6.533767733955935,6.780330149401634
5.591676154730091,3.5761150764087484,10.704487123112504,8.165317468508324,4.204976629470834,15.680332499450545,6.568712647935703,7.094784545016979
5.93714178640014,2.938005828296513,10.71515884990861,8.345075650046407,4.415987871922365,16.257697862575966,6.618541012485416,7.424002492667773
5.9615694927295735,2.3779912052728616,10.81354440906273,8.615786572153729,4.617713312355118,16.86101477185287,6.670424468400901,7.741729754988812
6.081897252701923,1.8653408142692587,10.960759203408358,8.92316114939433,4.739551837415786,17.438036195532128,6.684510859110608,7.981828041236656
6.222110142082167,1.3572076422937471,11.085685927171802,9.173247667589546,4.715652162649746,17.9181392646512,6.601206365915198,8.067331361122646
6.301853253339411,0.8356094673047602,11.13277307091191,9.290773641660467,4.525042247944974,18.25048393319962,6.381814372018799,7.961931476294215
6.2992917175634435,0.3339827950394428,11.105728111361225,9.271871811215043,4.226318235515001,18.441210814605842,6.049610316258782,7.704407509470433
6.2707982815869885,-0.0773916838787217,11.069276924385136,9.188572006817582,3.9365098727927132,18.550530009682323,6.103447859079287,7.856033738431405
6.310737918713176,-0.3431495477417243,11.104560974915726,9.14033569640654,3.7548971688977377,18.644100377683642,6.223587014446204,8.09048244241468
6.485358209047589,-0.4722070267181231,11.254442022583474,9.192389010505229,3.6909551541163252,18.738874912295984,6.051202745023859,8.37020410579284
6.795388442459074,-0.5385808886490612,11.504883296580761,9.350819110113319,3.664141777043408,18.794782297375367,5.977986911666977,8.350363824067768
7.190928847189415,-0.6258156644475236,11.81284711930677,9.586901580127956,3.586314320680013,18.761118205433373,5.9551267030648205,8.424633491838389
7.610920963576311,-0.7654603904521639,11.691367272986636,9.512832544416252,3.4548695474594875,18.629458550099862,5.955101045151371,8.580578697330635
7.582167554197878,-0.9345479819592858,11.496593616463224,9.417135103504371,3.357709639857103,18.437511389331554,5.981825421994912,8.814531306219337
7.454872854787525,-1.1161542555429742,11.24817468801942,9.30431871875637,3.370133680157368,18.223349776132647,6.0338259562272905,8.717211091299582
7.268507068587269,-1.3516933536933962,10.987899225189322,9.188555734471802,3.4447326353498564,17.984533868662396,6.069785471623508,8.966525627277555
7.331250914993387,-1.717030980865274,10.995355262915481,9.306914382340894,3.4211531361342935,17.68720617540502,6.022119822418455,9.08750395734055
7.286557977153957,-2.240619403449253,10.829274414116608,9.27934172331416,3.1644508106231153,17.310275471324598,5.8470356634936165,9.026358860346464
7.212358983179912,-2.851363633416133,10.55777392081754,9.154354183289499,2.6982692633196943,16.8725645138953,5.557791519503328,8.80672060107396
7.190697329632744,-3.4166763680902825,10.278246516277283,9.012145496032288,2.1926054438567544,16.41602897051351,5.2081953239289325,8.507432864182281
7.2597675549821234,-3.840360556245587,10.05542799708983,8.91298406665039,1.8091717236202236,15.96887480375864,4.846998992662988,8.207335761706014
7.398165294245769,-4.132477812231302,9.891584742354887,8.870567269482928,1.5507949991314012,15.529712696223857,4.489610844335541,7.946414871249074
7.5490552704142315,-4.389755828983152,9.747635119802348,8.866192425836855,1.2595491912710315,15.086696571546934,4.130435381794832,7.729585357869388
7.661672996576053,-4.703175390331158,9.591111587438451,8.883850669365465,0.7690782474457863,14.650053720309115,3.7785626955123326,7.558485772568926
7.7208851645801735,-5.070568253514111,9.430689191413258,8.934331735970412,0.07653269228420377,14.266178196984146,3.480597522855246,7.45661105301783
7.749681707236475,-5.387962797723755,9.313103584484855,9.050623870261509,-0.6171448866925323,13.99886326193811,3.307911281970074,7.4647260680942376
7.7890423144843,-5.526742783375429,9.289013891005872,9.260941209455371,-1.0360288837141127,13.889963878260264,3.315784176603393,7.611221108819467
7.87201848524069,-5.43011771018174,9.376700787702742,9.209446591043507,-1.0223333365030205,13.928170086352997,3.5050071627646746,7.883246547428575
8.008127756202233,-5.149717673529596,9.550548083938418,9.198049632962345,-0.6402435364343357,14.049021925604622,3.815335096463569,8.223743033985416
8.182182909909079,-4.803253269778091,9.757090858884474,9.5337401353503,-0.11975989671566296,14.164633906166925,4.154886969594235,8.557238691561553
8.36011099996398,-4.503213615103105,9.938047277266794,9.791114886438464,0.2967802155591838,14.198406062866031,4.441531686036733,8.822701797619047
8.495685079087112,-4.315029920874863,10.04139937937527,9.919494423307793,0.48087975980863606,14.10130042026072,4.627662081297997,8.989062700611528
8.542248539290968,-4.256801684938186,10.023718684478105,9.888066423346336,0.4415369868431192,13.849756490001301,4.700662923883037,9.050206209300429
8.473424153361927,-4.315392519641852,9.858708591201093,9.69545023207729,0.263945015070434,14.189274662009236,4.671796216870868,9.015152073485018
8.30157349063493,-4.45924775024068,9.552653756099948,9.379071204543754,0.03141825992123458,14.445215670889914,4.565364137331078,8.904527336308618
8.07447208716147,-4.649275539962696,9.14915992675736,9.008507575721344,-0.21513094599143875,14.540365883080533,4.407706795587099,8.74793123522401
7.846874720329525,-4.853140401228896,8.710414156349822,8.656393647294534,-0.4721451777298047,13.870180171188116,4.212895506872086,8.573251695338
7.648160727081774,-5.060031220727422,8.284620857144834,8.36288526105976,-0.22109586789324992,13.188804029340458,3.9704403512653217,8.39081979060375
7.471399886374971,-5.288354613275021,7.883059923987527,8.118673463130062,0.06116668253311721,12.488709291361266,3.6458827754287926,8.1847108063245
7.290099787810908,-5.577939615007238,7.483596618821191,7.878803565159202,0.16003582630937432,11.739588874355107,3.5712748852813134,7.920588500838708
7.087729749776875,-5.961883054705749,7.058911178851273,7.598925457526782,-0.39524239778410286,10.925512699759965,3.3600720399150332,7.5694174735367055
6.877807996995155,-6.429993024879101,7.011698662691283,7.630864940821466,-1.081954255388434,10.08139678274308,2.70531532556659,7.135829987332654
6.6996566019694175,-6.914759174180054,6.580642627631351,7.65541319988548,-1.8028096072092907,9.298224645294123,2.0808594500297666,6.673222964971128
6.591754771533313,-7.320553071184106,6.232072130622353,7.391831691675538,-2.397265016767904,8.686354904066214,1.6181349375324379,6.2713802247525265
6.561988969282464,-7.576565920896346,6.0150967977954455,7.259354754947895,-2.737891785308934,8.31937399438579,1.4102429727380335,6.018951002889607
6.578256855615557,-7.669568721684206,5.935281338750188,7.276111738149336,-2.8110683207260205,8.19714660041225,1.4691306118525669,5.961284137882859
6.587340929563066,-7.634893553946091,5.954020120772316,7.408110703796252,-2.70956850541182,8.250139336375037,1.726695702946399,6.077873157558473
6.448881774821744,-7.375936788974607,6.04761224984977,7.7478373821089805,-2.403748073244563,8.476871395198152,2.408038329888827,6.496246896282238
6.317556131132025,-7.209645439648386,6.033748531740413,7.839538155416633,-2.264738422240876,8.4928692814837,2.6638769222691008,6.610848354905008
6.198711429894517,-7.022904744608911,5.971045319798187,7.855252369269696,-2.1079573032929146,8.404027661534325,2.8212350908277513,6.605434832118717
6.142148456951652,-6.803536206463905,5.894306469365879,7.826108188335587,-1.9362607757153205,8.228220638668821,2.8973011322838165,6.5186214495516515
6.185523440455915,-6.545252109608759,5.8517232515075,7.8055278214726185,-1.8039450881229997,8.001498189574203,2.9279032432078496,6.431082266263018
6.185523440455915,-6.545252109608759,5.851723251507501,7.8055278214726185,-1.8039450881230001,8.001498189574201,2.927903243207849,6.431082266263016
5.904104632888358,-6.264395341889323,5.871368886946708,7.835075830589647,-1.788457340733202,7.74916491290157,2.9417122155284194,6.4106722721905305
5.668293217215,-6.008163032119971,5.932087397651885,7.911599966747743,-1.9365857821406096,7.460862678824318,2.9373769780887056,6.462242078868823
5.46483353635658,-5.846889844884456,5.963344210702775,7.981628693039557,-2.233172398825198,7.08923572584707,2.879075094382279,6.520023373490303
5.561569612540821,-5.847841635362409,5.8810256781566155,7.972110343411291,-2.6179598307000536,6.579613862496859,2.717545952891089,6.4902415896931736
5.503122229198421,-6.03807567620346,5.637019712547957,7.836685252068724,-3.0281870511094895,5.913692759026616,2.424277480193112,6.312032680067873
5.3039843842060295,-6.378717951949695,5.246421639232997,7.582623510364105,-3.4262546024653426,5.134606766609869,2.0137878747537856,5.992169122619637
5.03226594390676,-6.7758035962736844,4.772572775682612,7.259792626047516,-3.8005085082505783,4.331129849444819,1.5368100478087257,5.593061561331034
4.767474572711529,-7.128332156495803,4.284737976108882,6.924836362371578,-4.158127881748037,3.590277069577153,1.0508282976681436,5.19019455214544
4.560979580424124,-7.379742868084894,3.8256541599825415,6.612519019494362,-4.522227630656225,2.9543436821767837,0.5931765511606083,4.833990874373439
4.4280182049462535,-7.532722763494608,3.8667005604437428,6.697064264719047,-4.920951766395592,2.41499974148283,0.17814753850826237,4.5408532870483835
4.792484052659484,-7.619282769852436,4.053302199046119,6.885045641253457,-5.357816660176652,1.9446985152681742,-0.18354725397770152,4.311416683247436
4.798305038569343,-7.656073068074782,4.3773039089981225,7.169313095680681,-5.780806345521204,1.5339971742591327,-0.4653110242823619,4.532021490290956
4.812787991433618,-7.6245873234339445,4.379341524130323,7.51575350868187,-6.085345113974907,1.2014928824711193,-0.6267447254317651,4.467167083024362
4.583632720130492,-7.494183385331571,4.1460064954113065,7.293753970120672,-6.169250060962555,0.9705655219869936,-0.6382137573863947,4.514711377914637
4.5129151583309834,-7.270314891354639,4.511589287344524,7.2172436194082055,-6.014643113500126,0.8368817336875979,-0.5075154613987233,4.670486178497556
4.543699115869137,-7.022720170545853,4.952147721032419,7.559903829565759,-5.731332777883461,0.7567702462692416,-0.28470832685570563,4.897260666373704
4.937109841384224,-6.854491170917948,5.3550092828190285,7.891600485105681,-5.501509369808539,0.6665136013356654,-0.038324638412457916,5.135834156720884
5.23613519989941,-6.823921945555173,5.649800680672258,8.142025962088516,-5.443535468138196,0.515561305502647,0.17981072457620179,5.328601128463871
5.4281042613475385,-6.887481609530344,5.831594321658105,8.277557624720378,-5.509352217512831,0.28590173612034386,0.35328310782631506,5.438668319306878
5.541597798603179,-6.926627347185178,5.938395522686331,8.301069846682765,-5.528150154976037,-0.016120038226619986,0.4887819314694612,5.452017403161314
5.618195117066084,-6.843455321895301,6.004139763621262,8.231671585287069,-5.37377944602635,-0.38356170575523835,0.5857323867597217,5.364539779368104
5.680284292189568,-6.639541849503819,6.025565416795513,8.081775437552567,-5.098653161600929,-0.82286897521689,0.6177743868187368,5.1690740124571315
5.719289839456474,-6.408223587684124,5.967677109945829,7.851083257609462,-4.902035687082207,-1.3444258150556854,0.5450791391011132,4.8576377460303295
5.713014682318663,-6.254863258190258,5.799906339793814,7.542224701470621,-4.965547930882885,-1.9413522863014132,0.3464377781683581,4.438339189545231
5.655273368579266,-6.2217237349029775,5.530337332019775,7.533501192313042,-5.312809653958084,-2.5819134367360035,0.03972911111917991,3.9487620920112856
5.569369022373042,-6.277965148444891,5.208748793483575,7.532058325446286,-5.810783808310005,-3.228362069832289,-0.33040145655385167,3.4475095429433615
5.493281328251941,-6.369344534593807,4.897612665504503,7.219983974128606,-6.290216692264326,-3.867511267898647,-0.7272126929218254,2.9863847833607293
5.453738617072069,-6.472205778534553,4.63862060884384,6.98885700290374,-6.668411538115825,-4.522861911694743,-1.1461632183183823,2.5870421954434373
5.457497406528635,-6.600671061461828,4.444835554956927,6.843764936276251,-6.977413797068516,-5.231320824574238,-1.6047345329190947,2.244374427332233
5.50851544973731,-6.764257137890488,4.322636207159631,6.786415575815593,-7.290205171384115,-5.998770645795906,-2.104881875884788,1.9542995039384965
5.630688725517669,-6.921422501151503,4.298090781390323,6.835628527273984,-7.617116200549198,-6.769797702679265,-2.600141971278979,1.7400976562955994
5.8685678655480595,-6.978874512312327,4.417644747167491,7.021957855699814,-7.862746913267342,-7.438770317437132,-2.996819062071813,1.6516106119032465
6.259335586050902,-6.842845561648702,4.71689311636903,7.357263605853262,-7.882010505503778,-7.899031862043744,-3.192456874901378,1.7345890330715263
6.796480785249625,-6.480926280505887,5.181206533039366,7.8053240237531565,-7.590984848265392,-8.098648537116988,-3.126837182002903,1.9929706811804915
7.025153093317863,-5.94699001808797,5.732194104852832,8.281829893038749,-7.573499128065493,-8.065957249607548,-2.811457357384768,2.3744988869046906
7.212867200143442,-5.355164545420133,6.256239272877581,8.68983139473931,-7.545101095357726,-7.889575793714365,-2.318919038859061,2.793432165492983
7.689426102269675,-4.823636590320061,6.659114917499156,8.967487428573628,-7.519112794223965,-7.670051528370465,-2.11360073758533,3.174716008813868
7.995225832655577,-4.421012917818497,6.90916764465803,9.112796238594186,-7.1689263070894285,-7.479014389152017,-1.8947008946911637,3.485726806697279
8.135530939422535,-4.1420808477833875,7.039380765556864,9.167464231796947,-6.985581111255625,-7.3511276894768125,-1.3546985369334286,3.732266351318763
8.155879122626793,-3.925006115966624,7.110555504531418,9.175916300697505,-6.860327146311768,-7.304200199496736,-0.8958192276818038,3.9267930385869283
8.116924268583755,-3.699495620266144,7.166282217781453,9.154253189540766,-6.6960743622665735,-7.361768613171607,-0.5637688972061536,4.059236704676426
8.075771251938466,-3.435217630127513,7.210764338368347,9.089622576001508,-6.485258974101459,-7.558257633672891,-0.4112496711532208,4.09349845187876
8.07348083661266,-3.160606770180589,7.216567081603009,8.959947603277618,-6.3203227541099025,-7.9281373164962385,-0.48029637072522957,3.987012456106644
8.123023471017724,-2.944819232702749,7.147533675422934,8.750648926191385,-6.335249811366309,-8.491724267623365,-0.7841371585954459,3.714842054270168
8.201986636129234,-2.8574632673803926,6.980532302559391,8.45903709493968,-6.624791876933146,-9.24342142240361,-1.299486862479323,3.2850301303639524
8.261442187561725,-2.9270991124594694,6.719690663581819,8.095226927285692,-7.193908988007717,-10.140331639392352,-1.9665086746325835,2.7433923788228793
8.25185525772887,-3.1177413226160438,6.400998387682145,7.687291575526302,-7.445833145912852,-11.094972296253564,-2.6921516749993475,2.1680869291733043
8.150340535953308,-3.337319669511412,6.083919711029431,7.284642871386805,-7.741174234633268,-11.984475939311771,-3.360925991992052,1.652294896704392
7.972429627866437,-3.475255183474427,5.831899567339995,6.950031200297734,-8.460007524520567,-12.68121080515668,-3.857666723058415,1.279148918400805
7.765651689917366,-3.444943282834474,5.692889670957943,6.741164430531295,-8.945029078164248,-13.09118775085919,-4.096154866840915,1.1014063099803573
8.02304579365637,-3.20721737954058,5.68895638899738,6.690964298639572,-9.09400058188719,-13.180638368520924,-4.041239194999565,1.1344496821444214
8.386672977897504,-2.775243834581346,5.811637649953538,6.416279615237609,-8.858576446198462,-12.983578631305795,-3.717757456626692,1.3579647540109758
8.389782875871022,-2.214297681147942,5.590756122700986,6.169031904084811,-8.279828867797427,-12.593556911441233,-3.6011776275384944,1.3046090798644112
8.479714919730718,-1.632716935769667,5.807612021692006,5.9833773533113295,-7.50824407224912,-12.139196921255971,-3.4243427382754503,1.2780988229402015
8.58348940774478,-1.1471611670045838,5.960754285862176,6.147314125335491,-6.760575690037476,-11.742305350618851,-2.8541953987179682,1.2970479516043993
8.646108530659633,-0.8299095457369741,6.015249900797212,6.218867853136987,-6.215404195352303,-11.47424839236385,-2.3559604604412367,1.6357925104503925
8.646510871626184,-0.679866006955941,5.9937791902497,6.219358526680054,-5.923090938783341,-11.342189924811478,-1.9232864790846105,1.9007417152916009
8.590240473716824,-0.6475566909992918,5.945719142426068,6.1902960929677455,-5.810253799860626,-11.320921434947575,-1.5321409096052088,2.0945531903257506
8.47604033224016,-0.6910796542883478,5.888509768730154,6.140069658870007,-5.773792240048104,-11.40382507817729,-1.1944492843646506,2.191521800021658
8.27613252513728,-0.8078477582248837,5.776968798030082,6.024063629366517,-5.7757320741556795,-11.622846696286906,-0.9734785973485465,2.131418844879881
7.957021867134056,-1.0148904688802813,5.534469378303734,5.781940078789785,-5.858498754782083,-12.014969210286251,-0.9404537275567441,1.8638956628880299
7.994395220422515,-1.3046874002660729,5.119520226994902,5.397958951446854,-6.082996540588073,-12.568498504430979,-1.1109035069293982,1.4051159810286615
8.01756821165786,-1.6243239210908504,4.9770381806398065,4.9238600971509,-6.456624174021285,-13.2069854256755,-1.4226548315984084,0.8479997277198266
8.036934477884664,-1.8969537939708225,4.794175017162167,4.797757971737619,-6.910944814880388,-13.831593500637416,-1.7770898125213461,0.30992801686076993
8.054121999235987,-2.0619990625719518,4.217768064341256,4.70586253134684,-7.336610010344042,-14.381588894934845,-2.1025361542346523,-0.1355186989266658
8.054395848375622,-2.096812749663331,3.715355386942403,4.3169927916470705,-7.641217767443358,-14.853981402976629,-2.3800746728139357,-0.48090916326092925
7.677205627716799,-2.006455107655859,3.301066060946975,3.969258567071523,-7.788637035401446,-15.267764864645978,-2.615177937499938,-0.7477031622884944
7.331783450042185,-1.8021436945493428,2.988179157794645,3.6841602147266053,-7.798595941767205,-15.616563614079888,-2.7945309830491145,-0.9347910080942384
7.060267801890552,-1.497150838879332,2.795010713019007,3.51268798876197,-7.7155981418553905,-15.862964980633041,-2.877688371102057,-1.007324409896591
6.894847844485529,-1.1231073306317285,2.7203872233086006,3.4888667866427796,-7.576682255961918,-15.980900541655458,-2.831874085229588,-0.9344407033563101
6.81799857882765,-0.7401368333260129,2.721960905301887,3.586459558620247,-7.4024824556568145,-16.001208834140105,-2.6719810657478194,-0.733887759858627
6.768929988431397,-0.4178846794083564,2.730707290522709,3.725824367863629,-7.210470424508364,-16.01202036420139,-2.4629733414429937,-0.47589607578411547
6.691100500518127,-0.1984090299323821,2.6951075467241363,3.82700615045929,-7.028441453346418,-16.108632594720483,-2.2785855473224355,-0.23892548503432132
6.574421571838039,-0.07392554084727265,2.614934623934236,3.8614910012720016,-6.888172207189388,-16.33143332551092,-2.1490497232473813,-0.05394537225609167
6.454312591575049,0.0036980296465317685,2.533749473517217,3.860555944690321,-6.797957398612562,-16.637511668807164,-2.037412450722846,0.11759754932284744
6.372906269515792,0.09474315132882477,2.4978990666017498,3.8792911018720115,-6.714359225388751,-16.924533102237792,-1.8603478233270414,0.35538330158373876
6.313087401609817,0.466104236945551,2.5481530838601048,4.046124458820447,-6.211383230289195,-17.098700827589834,-1.0563866791177303,1.2097080161813472
6.230182785654093,0.7275494915475985,2.521357130304347,4.1042838292985975,-5.7170328356843285,-16.996571998413668,-0.472170620750187,1.358027188021571
6.0233826114353475,0.9600439307518124,2.3631734268609654,4.037223419635703,-5.198046229795174,-16.900252330777572,0.0869497181610393,1.7845200117309177
5.647252374058122,1.0800525021794622,2.0261379535253043,3.779302575709476,-4.861678859636731,-16.933686995508584,0.4846341848392538,1.9916424862632491
5.086542653202406,1.02201072486759,1.5013958236259182,3.314094396695816,-4.870891193323109,-17.17252084543792,0.6322231299338377,1.9218698974891577
5.086542653202405,1.0220107248675903,1.5013958236259182,3.3140943966958165,-4.870891193323108,-17.172520845437923,0.6322231299338376,1.9218698974891573
4.3619754126706844,0.7655306281065605,1.2557672435709142,2.6869488747828933,-5.2508614825363065,-17.6168965695647,0.522704485240113,1.6040066052650166
3.9437561300517503,0.34997885465512263,0.9724619110743892,2.3586328729343053,-5.28575576396616,-17.46425252146956,0.2255314405049102,1.1361193160910672
3.5061889858160753,-0.12962511123833131,0.66676152768724,1.723009633254604,-5.311861535304303,-17.372086706969835,-0.15245664314720753,0.6389100026755156
3.1962798614304098,-0.5535364127089502,0.055630257583907966,1.2380491741047421,-5.332739683170505,-17.985739388797345,-0.518550744685034,0.20345188317539578
2.6653259738473434,-0.8292655124287228,-0.38443307533900606,0.9394461373046066,-5.603683328763267,-18.54729176326482,-0.8293953914038503,-0.13746228918152353
2.3368545952682527,-0.9341050099715208,-0.6672890010071483,0.7999841563256078,-5.642610703474284,-19.06388704954346,-1.0893829813120237,-0.3976807520979723
2.167236708538594,-0.916074084826106,-0.8531380458343846,0.7603317474168158,-5.56404610702749,-19.5481980485589,-1.3165344661304732,-0.5978536973865508
2.0866635777813003,-0.853396792114994,-1.005662177440361,0.7690529657746563,-5.507747041826043,-19.989926788441622,-1.5052772132398955,-0.732302156325203
2.034465582920193,-0.8040474133417759,-1.155532691943751,0.8030261205426764,-5.561261894079963,-20.353345505520803,-1.6161521148927016,-0.769537873361451
1.9772896525631325,-0.7754348040144613,-1.290376008858189,0.8631808018846118,-5.710187563533842,-20.596576654913648,-1.5950065410540273,-0.6785931726078214
1.9113943997944913,-0.7225312984097577,-1.366884946837648,0.9641693862580714,-5.833357824295495,-20.68673701881844,-1.3970080883058085,-0.4477910627518213
1.858110067348736,-0.5698060040549913,-1.3310506046430743,1.1327085454915684,-5.745979636431335,-20.595422624661865,-0.9938237444406447,-0.07578983219752031
1.8524948824746648,-0.24943938266790197,-1.1408024698450503,1.4059859988766414,-5.281221950941564,-20.289047760168536,-0.36967236323597946,0.44815114597935507
1.9205848723211858,0.25883918782608833,-0.7911584154333383,1.4487617214106594,-4.3771574074363135,-19.74038512366159,-0.0022089353353594277,0.6871800191418451
2.0518192454554565,0.9062005146365162,-0.33467145751598787,1.5336720441636487,-4.254684761802324,-18.96496860716546,0.4332172236231257,0.9781878458134642
2.1850326164724216,1.580097562870438,0.11715886915106304,1.6426042199412842,-4.119333967572512,-18.05416057104821,0.8803844025533876,1.2891194582889955
2.221432725237118,2.1291226030487973,0.41926616422279755,1.711284914595944,-3.548495595298834,-17.170535157620378,1.2465944839350709,1.5475094602107677
2.0613837749257726,2.4010174139385767,0.43902746144185945,1.8741086885486338,-2.6584856165829245,-16.496114912825824,1.43390685634661,1.663082723709341
1.6500044589268708,2.2954397006358174,0.10809936208463228,1.6706396985366012,-2.321962253734898,-16.1566342051942,1.6110276248463062,1.781690459283387
1.0136144628194261,1.819485680084228,-0.5382376947651715,1.4956147032299825,-2.5607032488579513,-16.16201893718767,1.3369881095885758,1.4238155478681092
0.6852678521594764,1.108084693213727,-0.9286430090209129,1.182534481533536,-3.2153156603155613,-16.39751555384048,1.132965353409343,1.1038164104809713
0.004809576405322389,0.3767193001224868,-1.708752041838548,0.8191543504025787,-3.9997665484081995,-16.675505198716177,0.8263991238863473,1.0185057216660713
-0.45228578055168517,-0.17808524242337753,-2.265815028921919,0.2229675421225741,-4.63455316908285,-16.82426665908282,0.17585936766899568,0.9359916825184214
-0.616950879654434,-0.4696889576737412,-2.5217938583000192,-0.1138085748905422,-4.974483852459217,-16.763747753470646,-0.3043882356005893,0.27152490422290065
-0.540842253925701,-0.5462903353542099,-2.5340015167260357,-0.2268450264422076,-5.044504113610186,-16.521419974441354,-0.6246096267721497,-0.1613616359169498
-0.3586748960507248,-0.5394211728236037,-2.4432813617781406,-0.2208279171524764,-4.973464510382024,-16.180180303576137,-0.8539388938478075,-0.40431890620277905
-0.20764680884397904,-0.5750889040941621,-2.378805982018891,-0.1883878232204367,-4.888302474649719,-15.79986713584428,-1.0457622196366112,-0.5135008568744674
-0.16213274758594523,-0.7060616250248241,-2.3885089709057765,-0.16031589200734994,-4.8408884409786745,-15.372435239414672,-1.1964784906746215,-0.516637814286824
-0.22503749097795306,-0.9035550399346073,-2.4400504175569084,-0.11696042870401467,-4.800782751804857,-14.839329696835398,-1.2603480746961973,-0.4162166158591144
-0.36566081143456713,-1.0998602689986219,-2.4761333368529734,-0.034760056944372196,-4.698837097439507,-14.144855721225264,-1.1935143313723828,-0.21716234615189609
-0.556409478790715,-1.2365257878454068,-2.465799218796023,0.08494209023488328,-4.47688537786378,-13.271989029632735,-0.9806007955865219,0.061066795994826
-0.7729948656182216,-1.281044280938099,-2.4089118597308063,0.23054140327215655,-4.106913442819396,-12.2327991823934,-0.6240468807456543,0.4029452170807272
-0.9706238520485856,-1.2187393042754473,-2.306131295278038,0.41213629549956954,-3.5843896471433543,-11.037060427915367,-0.12071638270198516,0.8203416492067823
-1.0804346329917518,-1.0525577253462233,-2.1425997903432563,0.6628606459884487,-2.9296723284975665,-9.685104474570256,0.12884232135705834,1.343427830334262
-1.0501835967235662,-0.821264933471085,-1.9126548193564372,0.9944659591818862,-2.2089251275370687,-9.065161516712818,0.34750585464799255,1.4998400467305826
-0.9001101939630506,-0.6092225387792353,-1.6593232046439852,0.9784682589434885,-1.5403528773851485,-8.492627394287759,0.511348411997275,1.59719723063536
-0.7357697083885979,-0.5192722267382994,-1.476444906535072,1.2232287443505037,-1.0507110851324628,-7.999064904448195,0.5896638233037058,1.6148584069393832
-0.6907352648992583,-0.6170678142807622,-1.4547282155565897,1.2332545856497095,-0.8019483983617363,-7.58827763251279,0.572006328920367,1.5437235339619133
-0.8379225240423898,-0.8882593137587419,-1.6132921409492764,0.9714840298454324,-0.7510978338170033,-6.537123892609664,0.7872443233020274,1.6153628513342053
-1.142489055355783,-1.2450679543542023,-1.8803727458307984,0.5201512375660857,-0.7821806317708707,-5.618179356112416,0.828535094468468,1.490246932661133
-1.4940315539239375,-1.5809255436030325,-2.143808072245318,0.024892301879885333,-0.7845484445141114,-4.714331470097487,0.8139493710357207,1.2870907266968898
-1.7861933672596086,-1.8338823059643232,-2.327469150160587,-0.4001213849810245,-0.7173300995155683,-3.763033009061345,0.8116109024731035,1.0810332761752106
-1.9776046545267991,-2.0137847695549436,-2.4308120871265406,-0.7323089372882201,-0.6209819140006939,-2.8022112289026166,0.7945823507178434,0.8523391008173339
-2.0956193330891533,-2.1798756337128555,-2.509041602783362,-1.0300174733547294,-0.5816584487677292,-1.9429665029281153,0.6654717643302959,0.5090310027328685
-2.194820035924151,-2.3945010530765427,-2.6215244911523308,-1.3712168821437507,-0.680223279572229,-1.2971404907538764,0.32553408527958766,-0.040962455109697087
-2.307143950429228,-2.6880114900658585,-2.788259692038684,-1.7868821516603743,-0.9529370366489154,-0.9090668896748787,-0.2570329248829701,-0.42711768806191835
-2.4128262929299833,-3.047178770538234,-2.973282649306388,-2.2250191548152394,-1.3709850049749759,-0.7251223718333896,-1.012967584259715,-0.5146688062239485
-2.4438956720619354,-3.4179032876257374,-3.0943975637655026,-2.5612309440389196,-1.8350383913369956,-0.6096920630948067,-1.397578251567359,-0.941913808949543
-2.318232340216513,-3.7163281608598506,-3.054437369202506,-2.652587980106926,-2.1889495015774814,-0.39777514498648053,-1.9959252586412362,-1.2179639956871322
-1.9893499282662117,-3.854666289197157,-2.7864622386077738,-2.4109865084631137,-2.266199944736154,0.03937878715507623,-2.2738455958366703,-1.5100406913634534
-1.4853834543472757,-3.781530126389684,-2.7267053888708346,-1.8563962687942688,-1.966824222715632,0.7473449643354949,-2.1862281071807574,-1.390834651175973
-1.3186493647442725,-3.515367527589264,-2.5669188984045803,-1.4787469144504937,-1.917683736647273,0.9463056867320253,-1.7987237650857164,-0.935071684607178
-0.8132672609139981,-3.1437148633111844,-2.351078999560114,-1.0841447647913147,-1.7455710466045415,1.293522586937512,-1.2424541612600621,-0.2859323196610625
-0.48697872612115023,-2.7829641387658377,-1.8175867169136128,-0.4773871891607896,-1.471753502792904,2.4198486464971576,-0.6440596967935903,-0.015018974252237811
-0.37277037342870534,-2.521872806157475,-1.4465668940894991,-0.08191508324341491,-0.8847450932427384,3.546714284230827,-0.45473959384950974,0.1670656749439305
-0.4215868439058071,-2.381560524485334,-1.2182136981073315,0.11547207836342269,-0.4858490828889576,4.661362687299182,-0.3274980030163268,0.2768914009332474
-0.5386190202722798,-2.3135127879172366,-1.067079163361237,0.17546716844582477,-0.14730449034386336,5.76589809342652,-0.2170821559132187,0.35145753517067485
-0.6359109250413236,-2.2378628957126323,-0.9274984658629347,0.16255785548045013,0.2889099503260851,6.852466046142448,-0.101072177399349,0.7310023537230194
-0.6740012301808779,-2.103538523528441,-0.7718939314061248,0.11344058224334479,0.8928557284558319,7.889017910715193,0.3547679571466213,1.0027035653636631
-0.6770938281819119,-1.9345255131857542,-0.6278493779782748,0.021689984301181388,1.5759455236795368,8.81716884290147,0.7019762864507045,1.140820763323584
-0.7182784557753074,-1.828025217767932,-0.5685292083713962,-0.16175628001416262,2.1156398673495977,9.561134345764634,0.8490052002051607,1.1021285858786924
-0.8804491621853291,-1.901422339117296,-0.6785545405489996,-0.5096408198296558,2.2703121800957424,10.04763365150952,0.7108745776111556,0.828278025529602
-1.2093466067658947,-2.225341409895677,-1.0095138519274491,-1.083124797657775,1.9136981793449162,10.231402914123608,0.24247370071349553,0.2638026293143814
-1.6836661155110317,-2.790358512611955,-1.5494344498223034,-1.1607855004314573,1.097505726178176,10.113498397990176,-0.06592841255522362,-0.15894354986315096
-2.220653355892565,-3.523000684489077,-2.2242300331863,-1.2527143861246213,0.6308520001879665,9.742247141328528,-0.5095187247398997,-0.26624494399127135
-2.7122013936030323,-4.32558679405554,-2.926265495480978,-1.3507535094719791,0.23124560029501245,9.200104019009533,-0.6147441442876533,-0.38490286848703453
-3.065651402733423,-5.105051323715854,-3.547028918501407,-1.4446311020143434,-0.07800725261669818,8.588604683452555,-0.7179363477363873,-0.5030927483564063
-3.2261615467494056,-5.780813540542108,-3.996244270047299,-1.7431228388112234,-0.839183188426984,8.017285160129353,-0.8075334350591353,-0.6074916444422503
-3.179360389673846,-6.287744190180401,-4.210369268638359,-1.8357343128979287,-1.2965597446775166,7.5900549620916955,-1.4492668794081203,-0.8985114619974566
-2.9491223649510476,-6.590180419717934,-4.1639920356258875,-1.9639171843096708,-1.4621660277631987,7.381132897941025,-1.7414028688434704,-1.2367557125489026
-2.5999887649109086,-6.702121625890978,-3.886896362221886,-1.7312906896789781,-1.4169685990326086,7.405699072106565,-1.6997011615351156,-1.152030329266968
-2.2362321319663594,-6.691758041852784,-3.4714739522759457,-1.2495862673601823,-1.2887215574744835,7.605092792330777,-1.4186095817683593,-1.131050026542833
-1.981061444476818,-6.653632360136103,-3.051232590264961,-0.6933244240830134,-1.1989107490402418,7.86699434954544,-1.0406763502023344,-0.9959873669152077
-1.9318455492538198,-6.657890326064119,-2.7491600669747105,-0.23509882382765343,-1.202920073817286,8.080960178077177,-0.7003612141731037,-0.5156532879491795
-2.1118159826252114,-6.7112495724331165,-2.621746101656455,0.02408745337379143,-1.2656680559479392,8.19932239726348,-0.4679646359923356,-0.19280931842537125
-2.451801927207324,-6.760890328021784,-2.6359018792292463,0.08818507993160468,-1.2985232689456907,8.259274983049947,-0.32681121085350895,-0.0340865019077057
-3.0856363255461265,-6.609545191436574,-2.7101957337975917,-0.011732809588933113,-1.0779301919705275,8.511715943564706,-0.01471967151696731,0.14026302263439436
-3.1753019081736555,-6.397910015270973,-2.6342598719607384,-0.01809466802922466,-0.900093932349235,8.733619164183729,0.24508956211755784,0.32320103994484883
-3.099497926652648,-6.177808942203349,-2.4998390048155565,0.0021264327912319646,-0.7901563231269377,8.89863102451939,0.5115966964827912,0.5632519210317659
-2.9393743412735076,-6.049475879840489,-2.390298581868278,-0.039223946592340166,-0.8277842823201216,8.858711645617479,0.6566223189112087,0.7490239966540513
-2.811129910882686,-6.107728187509864,-2.4039324662074426,-0.25968470344036954,-1.0809280619069177,8.492545491901987,0.5408731683160536,0.7284616614944849
-2.8111299108826855,-6.107728187509864,-2.403932466207442,-0.25968470344036937,-1.080928061906918,8.492545491901987,0.5408731683160534,0.7284616614944852
-2.8204455058345927,-6.409130138671256,-2.6138224280371554,-0.7538718269092112,-1.600923051348898,7.7523022159899835,0.07215353074873182,0.37480300816849543
-3.0178828894159966,-6.945549559343179,-3.0346426806120497,-1.0385322984181282,-2.3930861779337835,6.681836413297232,-0.3423849427042265,-0.3501645616550873
-3.3708252215000902,-7.13659721997422,-3.1950921838877213,-1.4409823477943389,-3.384861195639816,6.2708596893531565,-0.4363948987290078,-0.44450396115307866
-3.771228642128246,-7.337423539611218,-3.7973889102390013,-1.533754386847874,-3.916013716599313,5.920743958250686,-0.5328928849685906,-0.5437365996205692
-4.085168460191892,-7.955903394295176,-4.296352748471653,-1.939688272021145,-4.3578534710262575,5.689447221878385,-0.9218637698021865,-0.6345701054000217
-4.221249576398523,-8.402665495688554,-4.604762063068259,-2.1668566912234546,-5.089231657101648,5.563944578588869,-1.206085668462157,-1.0056344230956435
-4.174467655557114,-8.68191977262937,-4.716650318885476,-2.4858125940090474,-5.590726463711636,4.814672088606361,-1.7185608213143053,-1.4932870910113263
-4.014812131904803,-8.844962486413126,-4.692173081641006,-2.5846526731037325,-5.897426746711562,4.2540869957327825,-2.0254846870363874,-1.7318267357944097
-3.8314792131577167,-8.93729968844283,-4.605693412994805,-2.5546978894739114,-6.039244982630768,3.83390775592063,-2.1922247576784493,-1.7936361583125524
-3.6777320161760656,-8.969752905818684,-4.49815565697378,-2.445229179079839,-6.015404739521366,3.534869261966516,-2.248344020514353,-1.7200456185249084
-3.5552961730169477,-8.933086005351468,-4.365780923846487,-2.2491241003121707,-5.82405829191124,3.3710085004649444,-2.1793676936754083,-1.5037442111257968
-3.43831324041125,-8.828541493308599,-4.182357479184367,-1.9344146706293344,-5.502955973186528,3.3699108057069718,-1.9522354529518697,-1.1156429286151086
-3.3060547808637555,-8.677418779349052,-3.9287815784762734,-1.4877016149791222,-5.1255954830871975,3.549915021853367,-1.5474548584073824,-0.5458063937231319
-3.1584885109203396,-8.506780440934229,-3.6099757026431196,-0.9386322385818905,-4.75362649354585,3.9050572463518005,-0.9793396954174688,-0.21818203606049358
-3.0149039829640585,-8.336841767434892,-3.258872646779793,-0.35944492310464937,-4.399954217966507,4.39553282153462,-0.30334828719584583,0.11815131803064695
-2.909486174081025,-8.186738597114683,-2.934461972442652,0.15011647470099657,-4.044835401127271,4.942641672693831,-0.0013464863457456034,0.4208579660383082
-2.8879005179446704,-8.089545421831629,-2.7135458013094063,0.4846713744069504,-3.6899310708073823,5.435504460376286,0.5828859333660706,0.664516981315342
-2.9951443915195664,-8.09604045292991,-2.67011950980614,0.5612942768698485,-3.397269381106471,5.75652947232375,0.9506066806658582,1.069261171259619
-3.2491869894546714,-8.254664816500835,-2.8434836110371875,0.3501379413947791,-3.2711406494097366,5.820706974568782,1.0375104415315228,1.1916304318998854
-3.6153458049104943,-8.57460679066684,-3.2115164452119247,-0.10771606348035143,-3.387466634366787,5.609697481614138,0.852265261535281,1.0331889889998902
-4.0081088521016355,-9.001355009576317,-3.6925094058068573,-0.35968653872231465,-3.727495140637842,5.177553571720662,0.4667842420341644,0.6490541732272864
-4.329848186579833,-9.436851381872765,-4.183476036795037,-1.001905715918706,-4.186210191082552,4.619138543152011,-0.029162599258205368,0.5445280939811227
-4.5217226199247955,-9.800588306640355,-4.612427918093187,-1.6063352085399638,-4.665093863324937,4.019040070963411,-0.19957248573489836,0.39364839195863416
-4.587691076063175,-10.082086600872074,-4.96661687636267,-2.1578329801981235,-5.165026166000206,3.415262394332987,-0.3980438142115855,0.1602802330030337
-4.575745743252892,-10.336396579154982,-5.277844257985777,-2.6822590430548825,-5.777212131457341,2.8005794096238272,-0.6719043380352773,-0.20313307256027144
-4.536574781073992,-10.628854143378295,-5.581576159066056,-2.7911952027942832,-6.570059850029204,2.155332096451176,-1.0318812638441963,-0.6025565186232066
-4.492767639471955,-10.980927139970342,-5.883408085356628,-2.83807032738303,-7.482341287143481,1.4850183890145672,-1.7802606321239893,-0.9211245721953608
-4.435706099435544,-11.357456674981409,-6.153614438384877,-2.8326040924100577,-8.327120735598358,0.8372499738118168,-2.4284327676437094,-1.1604511101698163
-4.344475676355019,-11.69229004080903,-6.3472581526139535,-2.7686578961043007,-8.899782235363832,0.28870203371833014,-2.8632395009083744,-1.301931725268844
-4.209349746441779,-11.925144027529141,-6.432857578755093,-2.621358860071329,-9.096524721451301,-0.08806109476224795,-3.016507911622242,-1.5193407343413599
-4.0433689692797765,-12.026738114798025,-6.41024865473193,-2.6458810678934834,-8.961543121579757,-0.25512234350634344,-2.8916123587038607,-1.410663605389253
-3.875918868368642,-12.001541315186843,-6.306389111850506,-2.856041220722567,-8.647288048710582,-0.21761063959561283,-2.551579793629911,-1.0219341591205389
-3.737315969629317,-11.871805832351095,-6.155165770808293,-3.002625426540261,-8.324784320328918,-0.011143830503759205,-2.0802583282328464,-0.9250614398462714
-3.651505944511068,-11.662512141167946,-5.982465913150982,-3.0916930927365587,-8.10164031729139,0.31082643900382734,-1.9602559792654504,-0.8299213926699046
-3.644190106295939,-11.405725774940425,-5.812788185035337,-3.1355133388729666,-7.9951090137504695,0.6738200896633988,-1.8510651867127772,-0.7571936289526471
-3.7536629354050683,-11.15575445849767,-5.68869412733967,-3.164973619237853,-7.965179725543295,0.9739436408944546,-1.772645179487119,-0.7214233759195686
-4.023848629453358,-10.985342818171368,-5.675737999027308,-3.2242364236854657,-7.9662805557369305,1.0915158817950072,-1.4160384112545388,-0.7463743991710166
-4.069336332242388,-10.951276286500434,-5.835857064484428,-3.1097475257530602,-7.972964914055004,0.937501447242993,-1.257001697677882,-0.5143135750859426
-4.1807867759308355,-11.055668682547184,-6.182683604251258,-3.2666083662239265,-7.9758029578473675,0.5085691022741241,-1.310903223479129,-0.5247726501784806
-4.325132035146746,-11.239389364965007,-6.25916781711736,-3.621250969238345,-7.974739046164206,-0.09274443243016517,-1.5087766294576632,-0.7109889922546694
-4.4448001484751325,-11.416985882655968,-6.735609208776451,-4.024956320522564,-7.984577480382188,-0.7010658164871356,-1.7212804630062961,-0.9366456389692622
-4.740964205127438,-11.530574713748527,-7.105489093083954,-4.334448521104487,-8.039247072250978,-1.1811343633039595,-1.8353487145113496,-1.0648381170192156
-4.812246568426316,-11.588075966194673,-7.33656601570297,-4.498453928641233,-8.178422669525629,-1.5156183507941348,-1.835125766002064,-1.0438386367345525
-4.7588679044665465,-11.65862008778348,-7.501284681038905,-4.587970889598671,-8.420484735312382,-1.8232799350866742,-1.8240150312992585,-0.9470083562316366
-4.727868577433793,-11.822520549324922,-7.727628213823259,-4.742204301203477,-8.74285113494435,-2.284441388520691,-1.9623777981107025,-0.9305295398336922
-4.818144630138376,-12.108576153933921,-8.10614967204853,-5.0663500816133125,-9.090040565803067,-3.0204359400964815,-2.3614297308788617,-1.1350267475488542
-5.020224037684141,-12.468276447921824,-8.173090655885215,-5.138157145300262,-9.411328166362814,-4.01281860235059,-2.5884281198859616,-1.6012814795218113
-5.232940849534938,-12.807523966498204,-8.277496606018614,-5.240434869684598,-9.701141323267253,-4.375530050659221,-2.859700013819953,-1.8861536641497565
-5.338564680531115,-13.044208101501454,-8.721986324441074,-5.293523022029153,-10.000709510528342,-4.665035550035937,-3.078305383874912,-2.1465921714552842
-5.277294077800201,-13.140985954777653,-8.984108205613348,-5.20177540725461,-10.346504487267786,-4.787817969196983,-3.144857472465848,-2.266326867240867
-5.071923147625857,-13.096095234859833,-9.061297857866245,-4.9048350519697825,-10.078445847705026,-5.385365406346502,-3.0086820758811195,-2.1687770705739826
-4.796937418146452,-12.91770523253299,-9.00044398979817,-4.919327746820343,-9.69815374217264,-5.773914719996966,-2.693706326574622,-1.8583361418403903
-4.524557223750976,-13.113119584979042,-9.261929802759632,-4.920722290508145,-9.226455695794419,-5.993962255705699,-2.6949111509933084,-1.8618819950090892
-4.28855396585931,-13.21187036060629,-9.047488538107695,-4.9108369206435905,-9.512166248688946,-6.06538724806359,-2.905834718693894,-1.8523983769694286
-4.086309910368667,-12.711833422055212,-8.777791127636677,-5.114206661738417,-9.561343986249712,-5.994470027732751,-2.578418187554756,-2.0101386690240903
-3.909032578686159,-12.188696294224426,-8.476575435267694,-5.132494414487128,-9.020581207478514,-5.80871906487237,-2.146030815729935,-1.6717816955802938
-3.770640461703151,-11.718846845213713,-8.200836255568522,-4.715993358939851,-8.534627151395675,-5.5840792887445625,-1.6861721045229543,-1.2977595085151234
-3.7099647023269187,-11.374744543808417,-8.027554398112795,-4.318690752772918,-8.205443559641731,-5.434444676917342,-1.2890474771722777,-0.9625485463095521
-3.7646066886403826,-11.196107212565373,-8.015351066386875,-4.014421808171704,-8.066279251906355,-5.4654719842560375,-1.0232562526999993,-0.7182916217642837
-3.93933431110161,-11.174112678023203,-8.171895235547776,-3.8475082414985606,-8.09486942010674,-5.727977310046499,-0.9122867524276118,-0.58349328007549
-4.197011045745481,-11.261260157441297,-8.454939200498222,-3.822632349792211,-8.255060905693362,-6.208907353357128,-0.9427864445083194,-0.5543449410291849
-4.481075845924667,-11.397993542841903,-8.806126394825363,-3.9217023571964877,-8.531442933410512,-6.8648434034613475,-1.097842369771085,-0.6287085418382213
-4.751840349914479,-11.536567197212566,-9.18870084005236,-4.128692343105847,-8.926528006419856,-7.665169084194157,-1.3842504837742595,-0.8212674765585242
-5.007597631602868,-11.651535013355561,-9.598955470532143,-4.4389894977518844,-9.431803885880873,-8.60596768249668,-1.827588762895553,-1.1561014827690073
-5.274270567687928,-11.73666306952049,-10.045606099818079,-4.846756614186924,-10.011805281941868,-9.685255070883668,-2.438784601999966,-1.6430968936917507
-5.570974839748547,-11.789586786725543,-10.51643702536277,-5.323453833539705,-10.616687253284406,-10.170412408486971,-2.742095328663307,-2.2570580551574833
-5.874835154682822,-11.790003968544875,-10.957726571618798,-5.805778060249601,-11.199750526740377,-10.567759704375524,-2.9811857728584514,-2.5054292514747685
-6.110155885425258,-11.68985793308889,-11.281951505055147,-6.204272611733099,-11.718380458323072,-10.834807408983837,-3.129509941089664,-2.696592937910716
-6.176124460598242,-11.435099251314528,-11.404354407135033,-6.434267144198454,-12.131054234770104,-10.947382022475525,-3.174049941762039,-2.82358025813752
-6.0034157036685,-11.012147440665006,-11.29138452907013,-6.45757063177752,-12.411219325948561,-11.470818562179732,-3.4783258593085007,-3.229949807299038
-5.602536061436687,-10.47943544052357,-10.987975822601305,-6.307197170130053,-12.565889700564405,-11.75267779092858,-3.6146712231780316,-3.5241738725733667
-5.063136434864186,-9.946657311459028,-10.595576199826855,-6.067889988735474,-12.626398134595549,-11.911342430400023,-3.6699907012535413,-3.765983570480425
-4.5003852654175756,-9.509341353086866,-10.20952196299594,-5.817327417404089,-12.610277530247018,-12.061758242215069,-3.704908298956104,-3.985750899920222
-3.992325961199273,-9.190827864956185,-9.864011677782768,-5.572313585906626,-12.496959501809968,-12.250595526383501,-3.7092383281557892,-4.140541972374179
-3.5594572292721147,-8.940048453484206,-9.53054896889315,-5.28608466370438,-12.2517419022502,-12.445779668387745,-3.6190878133952435,-4.133661226469882
-3.1947670107767827,-8.684097000096568,-9.167784498258037,-5.315134028899163,-11.87730789602333,-12.58227492261586,-3.3816384127976304,-4.314434784531835
-2.7282004206920214,-8.07425564100281,-8.406823889962283,-5.226626200474093,-11.032101541493619,-12.590757030350801,-2.606024472245847,-4.280913981966002
-2.7002760147860925,-7.790982373340069,-8.134138532487171,-5.166698539624391,-10.731944417629213,-12.55993483594976,-2.2846581696646164,-4.154336974619247
-2.829359659384506,-7.567680832316129,-7.999378959296476,-5.174243494067224,-10.55312088993733,-12.621344600051971,-2.14541951284573,-3.855527972777281
-3.0734407404194575,-7.39293434367992,-7.9867239169009645,-5.003353940459562,-10.465296060712067,-12.846206233397425,-2.2170708024900514,-3.8108914312253974
-3.3523227992218643,-7.227326470235698,-8.032103061841257,-4.985464814695192,-10.430986035243663,-13.261826640461443,-2.458694520152081,-3.9696635771693036
-3.3523227992218647,-7.227326470235699,-8.032103061841255,-4.9854648146951925,-10.430986035243663,-13.261826640461441,-2.458694520152081,-3.969663577169305
-3.577616729330957,-7.029173824099413,-8.057835341296657,-5.049206651350875,-10.427634106297434,-13.84243904498079,-2.788047282077017,-4.22499137933414
-3.683085562377349,-6.76977273151326,-8.00725136800305,-5.1207206066374065,-10.435466469709858,-14.513275822686051,-3.1196477626107253,-4.474573691696559
-3.6412803879484503,-6.435546923483661,-7.86048408328216,-5.153672611138836,-10.41940879142315,-15.167590950818273,-3.3929295906838273,-4.660179496210869
-3.4637859491783085,-6.027112304800216,-7.6295210051297,-5.137193646224867,-10.343670693511335,-15.69691183660641,-3.5826057669867284,-4.769556360033543
-3.1912166736005387,-5.558889286415256,-7.34361138494569,-5.086275208013362,-10.213394907494989,-16.028286425710018,-3.695475909507695,-4.815476927751834
-3.2857722487539935,-5.056443248468746,-7.03778671087681,-5.028127948939653,-10.094597666777995,-16.153026992863126,-3.762147438384543,-4.819373026453254
-3.480795346053563,-4.5524912721682895,-6.7497503768339655,-4.99429776620089,-10.079314981939724,-16.13028984841777,-3.828287799466689,-4.8126174036492255
-3.760889087715123,-4.08292252132008,-6.914651414631139,-5.017167547884998,-10.218296021655611,-16.060016064192503,-3.9434495634005304,-4.843855154116017
-4.082108102364183,-3.676975193394138,-6.778050904158037,-5.12153214240191,-10.475632438768953,-16.036228455268652,-4.143263868828947,-4.970683622743369
-4.137855319547737,-3.338870248810613,-6.744143620891389,-5.3064253316452845,-10.743517248512878,-16.102928934256944,-4.427366460138886,-5.2287303481750875
-4.271657141922071,-3.035436490508654,-6.776146504377425,-5.527829709926292,-10.912734374461067,-16.235003198591723,-4.746546056719839,-5.597455032799288
-4.397041691589468,-2.7089693084288418,-6.793843136032133,-5.70348498401251,-10.95158445987674,-16.354975893388016,-5.0148492256361985,-5.993490710449869
-4.435390673298571,-2.3116655202372542,-6.709995707980437,-5.749284849494028,-10.92734778563413,-16.37669222617952,-5.14654327180499,-6.303777018133673
-4.364614381885016,-1.8334883948374157,-6.47924743550243,-5.626451561283932,-10.939347345412093,-16.249150882629387,-5.094630686417521,-6.436288649660618
-4.231563135366426,-1.3003168814524844,-6.569652776546411,-5.778491370554929,-11.012192912550347,-15.97255855461281,-5.284122887637675,-6.34995111673512
-4.112315060712195,-0.7466185575563727,-6.5783833804089715,-5.872944502685706,-11.046687839412488,-16.321496954206165,-5.406328247726808,-6.4154931753817355
-4.05122714926274,-0.18686867939266352,-6.112699256568594,-5.887166405539796,-10.87915112642934,-16.592308443872618,-5.424566440202807,-6.357143611035788
-4.032114758406425,0.3907892262682875,-5.618045983672727,-5.815712516997439,-10.399006491096424,-16.776303302481654,-5.3339739282838545,-6.186785963989918
-4.0064802766040035,1.0013162803145486,-5.083722901869092,-5.68090469953912,-10.256046423099699,-16.230403418882,-5.1666112701892875,-5.950874341240726
-3.949864646372629,1.627211785525199,-4.5337261656839924,-5.525930398410767,-9.982872072058793,-15.738604045216539,-4.97762229173851,-5.711920264124729
-3.8910818897159594,2.206325786706471,-4.044906435667633,-5.391313935539375,-9.62641897245381,-15.410239146204171,-4.821406155959599,-5.5248876941619836
-3.885727216716016,2.6667363356631273,-3.7064951859914914,-5.291691235592935,-8.951551374550874,-15.34900855919343,-4.502794096521009,-5.4211165122821106
-3.9578266635478343,2.9879551474314177,-3.549177378894722,-4.985960077202144,-8.523137094453194,-15.59096562964129,-4.47187368953382,-5.224440224989717
-4.062148573913683,3.233082593320909,-3.5045788360715893,-4.839565049596431,-8.278689593497361,-16.06771766063953,-4.667343481450761,-5.2781887479888585
-4.101514909621288,3.515376551398626,-3.4345122860797255,-4.740912932833091,-8.097715286526933,-16.626043396088093,-4.952132407953797,-5.452447322395068
-3.988550083986039,3.9214963874091375,-3.2140065401524422,-4.5758079057977525,-7.886411156612642,-17.096399705180247,-5.191727374780105,-5.611762184163302
-3.707557124158917,4.4525458937668505,-2.810429713548406,-4.3060718908519,-7.631442745919421,-17.368906516249975,-5.327901308367583,-5.690061260926919
-3.3323973404727854,5.02657923272246,-2.3038352872127636,-3.992716062968304,-7.384024732468442,-17.43052324523593,-5.396358202768458,-5.715529410653629
-2.9866857294085403,5.535578081764507,-1.8350596811702413,-3.7486361469663785,-7.198220307132037,-17.343381108099614,-5.47718136391251,-5.769773033786437
-2.7715123214873136,5.912883113551292,-1.516844390173281,-3.6558766027108174,-7.08149322578827,-17.182925852610445,-5.615987940404985,-5.910927399981408
-2.707807065684721,6.166168859837243,-1.3668750029381753,-3.705949846011327,-6.990744619211876,-16.979577919519148,-5.774605321616544,-6.115698825680826
-2.7306673196656783,6.358581518838239,-1.3054577142508637,-3.80377332055802,-6.862705935187011,-16.702537110665574,-5.847810603561435,-6.28268043690088
-2.737945776501623,6.556110150937469,-1.2161745595438456,-3.8306728273495367,-6.649194554399089,-16.293660817781394,-5.734543311433701,-6.296412216260059
-2.659822963115506,6.779404802387951,-1.0263390969009285,-3.722138039007943,-6.337492358837091,-16.418961695875964,-5.852109529620755,-6.108091952198651
-2.5041471780739135,6.989215593230735,-0.7536332737387876,-3.508124868416769,-5.953602315449993,-16.519722821374877,-5.950883017928729,-6.203697667575494
-2.3498797801709475,7.107887122925615,-0.490371541029604,-3.2901745143921266,-5.556786688856216,-16.610203969861907,-6.090178823080214,-6.320334581491012
-2.294862463589777,7.061452810022393,-0.3381424587793615,-3.1714833746817646,-5.228667109757761,-16.705568196018525,-6.31863197877141,-6.5115597848396325
-2.3935461830277585,6.825075057247192,-0.33721352224404044,-3.1873321315766145,-5.045183037086971,-16.24021843480349,-6.281382195375594,-6.439253486138598
-2.627336757880356,6.4520941796211675,-0.4391402565840763,-3.2840876615226073,-5.025428418429162,-15.87043537118431,-6.382258549854011,-6.45491470226586
-2.9279408877803634,6.061333291798543,-0.5434558357652074,-3.362204432987941,-5.091078673605313,-15.488311782244534,-6.492937031056227,-6.438160923327584
-3.2347060425570624,5.7739828854051884,-0.5739401599601689,-3.352296394427029,-5.093795433464653,-14.999930365699544,-6.515953939191416,-6.305503847907289
-3.53946904549578,5.636148834597394,-0.5375604251726103,-3.2675799502998815,-4.917707709668777,-14.391111183488453,-6.449694760402233,-6.07249127935278
-3.881454670492303,5.59054904358715,-0.5186540430727264,-3.1927561785360297,-4.576958441161892,-13.73340389067604,-6.382786971729005,-5.842917916470331
-4.295300938676802,5.527637232590248,-0.6098908241535813,-3.216823010548459,-4.212602647959462,-13.125805640879129,-6.421994225460331,-5.732609907166955
-4.753919399405925,5.377855894103306,-0.8313832526925927,-3.3583665781680616,-3.982523964027619,-12.615504365255726,-6.6057355687602834,-5.78191329672226
-5.153796086979528,5.170386478268939,-1.0995870077441523,-3.537160448603489,-3.9385118192326583,-12.154499495174925,-6.864654376245223,-5.918291025741674
-5.361103418366902,5.01035507579637,-1.27225660407921,-3.6149478226126392,-3.9933388124373708,-11.6226621709345,-7.056778002374317,-5.995825798284403
-5.293977763405058,4.989077691460466,-1.2418393758647739,-3.4823261301032375,-3.999245228488702,-10.902930907231998,-7.05395940038957,-5.886709239040206
-4.986585055629708,5.0950338500389805,-1.0131268780537197,-3.134832778560004,-3.8679307452883442,-9.95853352723439,-6.8218294639643196,-5.563539356651233
-4.585867068934978,5.1995453871449335,-0.7077432312164246,-2.6835086571175033,-3.633689545743622,-8.858703976369515,-6.439591315937047,-5.115240330331891
-4.2756092941881585,5.136423351334823,-0.48922024536135367,-2.2891644330733256,-3.4139946216505526,-7.735509868148054,-6.048003782035357,-4.685751094962496
-4.176150416012418,4.814966398519239,-0.4624760602622201,-2.0664023402833775,-3.3105744541743904,-6.705515378543746,-5.764388063857428,-4.381707419094609
-4.286511595648164,4.275116445557889,-0.6192588035495359,-2.0251433858021293,-3.3386744362947542,-5.812591829482957,-5.622550813352769,-4.216214432887494
-4.501751884726619,3.6474788885965346,-0.8604074842075263,-2.084316576851476,-3.4318718359098686,-5.023971157654777,-5.570236527667456,-4.1225026038837544
-4.6832704640014144,3.064492516247048,-1.0659198658624138,-2.136139436595754,-3.4930766591815416,-4.268049136373509,-5.513704017913328,-4.015208070514878
-4.73028953584852,2.597711229992724,-1.1575695796149708,-2.1091413906974767,-3.4346880900445442,-3.479620854562221,-5.374017467885534,-3.847199197692922
-4.6134081277493895,2.253407598447045,-1.1194667945036363,-1.991870447837834,-3.1920181751232644,-2.626814863252512,-5.1236193161756525,-3.62550023304474
-4.365348155575711,2.003388063579205,-0.9803017099740766,-1.815623797510415,-2.7373215396157615,-1.7145232964352557,-4.790875295746055,-3.3886042515770805
-4.049884461262416,1.8135991085250718,-0.7833994332799304,-1.621306140632413,-2.1063978877910987,-0.7720628649880222,-4.4380669821741385,-3.1735920520875935
-3.7333186540932726,1.6542182079029082,-0.5675348734754402,-1.4370464276882007,-1.4047984491938679,0.16440038465564505,-4.128332848771031,-2.9987245640410207
-3.4692742263242273,1.4962318888058157,-0.3641549387056193,-1.2756898117220579,-0.7618238680398111,1.0659519118413,-3.898894178264146,-2.866401851880988
-3.292686098382357,1.3059163303999577,-0.2015466467455435,-1.1426074540348419,-0.25743859467499774,1.917096492168501,-3.7517510223251906,-2.774056362050588
-3.2158970000845915,1.0464546139853963,-0.10442739206705659,-1.040190697042689,0.11388513742875489,2.714807810203737,-3.662241333942002,-2.719548114332315
-3.2286669451488903,0.6883491202553897,-0.08834155526598308,-0.967068574853983,0.41028747559896955,3.463263733112641,-3.5978939410081097,-2.6997057430599707
-3.309624488447999,0.21933274245781237,-0.15870965864550476,-0.9212039244956687,0.673058565993901,4.165679206669796,-3.5383900187255,-2.7106903644797042
-3.4462708886605533,-0.3567868568709396,-0.31911383779402597,-0.9099083689767811,0.8805955047984857,4.816610897296972,-3.4876476604505946,-2.754134384413628
-3.6444887781877777,-1.0281462967004302,-0.5770403362510383,-0.9533740411293607,0.9598210649431147,5.403713576533554,-3.4690362805662653,-2.8393715126960415
-3.912292447073544,-1.7743452313525951,-0.9322190019704075,-1.0675865109616876,0.8435249217083006,5.925086943619919,-3.501721481612204,-2.970190850121406
-4.230600867915583,-2.5544216940285436,-1.3539446870954404,-1.2363060984125378,0.5310796377123131,6.41171925155016,-3.5725490911324314,-3.122527334903328
-4.544863761632229,-3.30135527788319,-1.7753633658862866,-1.4031074997249326,0.10910465057418076,6.931027927589801,-3.628630608047187,-3.2374016060466624
-4.7951945608033775,-3.940620365791831,-2.1233554281359037,-1.502126696709052,-0.28290347188541376,7.55781896249761,-3.603759764788775,-3.2460748068738585
-4.962012988912443,-4.426952880048558,-2.3668479241338134,-1.5078031154778662,-0.5200832154791242,8.328058060208157,-3.46310689303311,-3.11468587287044
-5.083827315978308,-4.7745433593040545,-2.5426921199460817,-1.4606372991671728,-0.5534530607500773,9.210059575392814,-3.2322118031769578,-2.8737552884231867
-5.227769584310639,-5.057722627853391,-2.7336230800366086,-1.44418773841573,-0.4326742300838719,10.117091135092524,-2.9863795006365943,-2.607018534823794
-5.436751366832876,-5.375542499141095,-3.0121512926750444,-1.5296775093750088,-0.27592445214179323,10.954550365668434,-2.805896103498626,-2.40511115348133
-5.695473580976117,-5.795470464386858,-3.390047147350852,-1.7285279361753028,-0.1969278215599146,11.670412296740468,-2.7264216403873025,-2.3140855366798108
-6.081310461015496,-6.843034963498368,-4.155586244072206,-2.1924967618620013,-0.3128837087317881,12.833878065351044,-2.695965620169963,-2.3101935602380856
-6.073126805389467,-7.294811693230365,-4.344605795192731,-2.2684172125021633,-0.33156081291390804,13.403481484475803,-2.585959183018089,-2.224343056602174
-5.9094018005319,-7.606756773781504,-4.3343469082615655,-2.173169651691057,-0.20857254482180693,14.013756252735966,-2.356997118616682,-2.004746563017373
-5.636772151177845,-7.783681103016479,-4.157827341164276,-1.9416653541095947,0.056689770710747794,14.64730802955329,-2.0458365481553624,-1.6792980361898189
-5.326406533204429,-7.87545903076455,-3.8978645416188145,-1.6614856040213284,0.4043305408257348,15.264081509693456,-1.7267581999495556,-1.3333714233896037
-5.326406533204429,-7.87545903076455,-3.897864541618814,-1.6614856040213284,0.4043305408257348,15.264081509693456,-1.7267581999495556,-1.3333714233896032
-5.034921337941846,-7.9375567091055315,-3.638854665525339,-1.4220497871877098,0.7598834986551628,15.838638610782683,-1.455607296999307,-1.0499846005090117
-4.772540036817023,-7.9973759816814,-3.4190982723724863,-1.2599413953274277,1.0712233572081755,16.38578612362906,-1.224082213020728,-0.8468309678620386
-4.500445044184536,-8.039109678174691,-3.213161780554931,-1.136511569063531,1.3305565803624682,16.957028415252115,-0.9565617071859791,-0.6569810520835757
-4.164263754816358,-8.012927298251071,-2.9584822790721934,-0.9672807365552898,1.5865319184358038,17.608256646948306,-0.5551252815971445,-0.37194808637491034
-3.744875345124842,-7.869974688845516,-2.611932625885211,-0.6870321747988811,1.9300827998351577,18.35618330904506,0.03287842438244013,0.07940331483033174
-3.288963360015168,-7.607290417639581,-2.196604356914105,-0.3039770468002015,2.435909015576336,19.15131099337684,0.768652029890325,0.6721880033511173
-2.8891543828657875,-7.287682235829022,-1.7986422429686413,0.10174237506379909,3.087594654906112,19.891711672175255,1.5332908780013077,1.2935582325418375
-2.620082985066679,-7.008684301528887,-1.5083738109109515,0.4389914850734005,3.756771723891809,20.478241497724074,2.196534898986442,1.8168499631975814
-2.4773502103740572,-6.835564173199097,-1.3482911319757716,0.6784293112845581,4.278050752846902,20.877629649908176,2.6977604615185,2.1879034313869794
-2.3726076139471814,-6.750314726660822,-1.2492959506941148,0.8745075941465911,4.573075396932569,21.144720620604584,3.0777077664610006,2.455056237752721
-2.195978059525052,-6.663530613663723,-1.1011618516771384,1.1152573652825908,4.717189042877995,21.381216856789006,3.4340684569896998,2.717737242974325
-1.8999225263997246,-6.487903217984152,-0.8400764948990533,1.4415478344631498,4.880214079621622,21.659035815514127,3.8354608641735815,3.0364394815555134
-1.5391308305235358,-6.218674940781525,-0.5032052970164099,1.803586937967396,5.182440782956859,21.96640516496877,4.262168256572313,3.377995875266717
-1.2369339036166207,-5.9535850394481376,-0.20760869145794877,2.088791605257671,5.588091747075919,22.21655905703726,4.618255179092355,3.6372390604684086
-1.1052397224179318,-5.828335301801659,-0.07089502751573573,2.1970768347367895,5.932605383008405,22.311019441181088,4.802613537377008,3.713385428156323
-1.1739254072826122,-5.9118396268281,-0.1310423499270166,2.108475691999602,6.0654585104336896,22.213068344616502,4.785837687299011,3.5827414585862702
-1.3721122884063828,-6.141551982665146,-0.31737276215757615,1.900398619287447,5.988356099897642,21.98432682340178,4.641623221070908,3.3204033443457615
-1.5677965362796373,-6.350040791306653,-0.48760832217681194,1.7073864832810601,5.872006888246685,21.761989124814683,4.514667412572432,3.062120349513301
-1.6391236902289685,-6.363309450191348,-0.5053299375870024,1.6494336366416809,5.940038410762515,21.689324953501114,4.546119309004152,2.933350671679613
-1.5347153470329025,-6.098968007342267,-0.3096606635843006,1.771710673318093,6.318358719808527,21.840540583089076,4.801589295529121,2.9886232020792307
-1.2885564942048788,-5.598501376065879,0.06427942772938454,2.0314726981659676,6.965616226674485,22.186124488349964,5.244084767777221,3.195644827979086
-0.9842951867838579,-4.9807057472907585,0.5229448297266459,2.338192658225269,7.7218311876848285,22.619297238137896,5.389521085437687,3.4702197141152884
-0.6971961794882646,-4.358873746816269,0.9802914241219071,2.617372562920375,8.418669842184398,23.022788157192252,5.5128751859326455,3.7361552575433477
-0.4555411431203269,-3.7845578251317282,1.4046397863080373,2.852717915997249,8.962980747827075,23.328172528457962,5.921919658003143,3.9693245492152163
-0.24480160864355277,-3.2529086549194663,1.8165474918453797,3.0797492914832834,9.346670931744235,23.530271354870806,6.263211681807982,4.1985976553227955
-0.040591022947237716,-2.7485538618352354,2.248937550755463,3.344119331663198,9.605458790240071,23.659655801226208,6.587217031105889,4.470798960515479
0.16668100189711196,-2.2762765140029124,2.710920413897307,3.665605418852447,9.784519672648257,23.750126604279238,6.937225832088956,4.814929133654801
0.3776756747838036,-1.84526746403829,3.1869055014062497,4.037048844974907,9.940515351969243,23.83171826786799,6.956586679608432,5.235685365894317
0.6047517908455038,-1.4339936400668187,3.6624982204924366,4.447825983992167,10.153461502634705,23.942304726960092,7.019290972819689,5.73134721776525
0.8729565407610181,-0.9860390259258287,4.141131384970749,4.89632245314297,10.507983317192089,24.12670458389537,7.141281664891796,6.303410059860912
1.190352942208815,-0.44920556142867357,4.629458839549204,5.372877217964039,11.047953634432236,24.409212037908414,7.325229915829892,6.553578971403981
1.5167381976087642,0.17997804152545535,5.107978921392479,5.833999767250174,11.252887329166686,24.762424421856156,7.548036670402146,6.818544614761591
1.7707881297306278,0.8488788428880412,5.523348992879108,6.205069089536107,11.478220471292616,25.108422278921285,8.09782828642754,7.351818539936767
1.882102643635216,1.4835102707825647,5.818953904352059,6.422057579158983,11.659026667389037,25.361696094761747,8.493947203273127,7.686350158554485
1.8487257893023588,2.0355878710125412,5.980974085119825,6.480219396111042,11.82398044577723,25.4833468994956,8.699311580281629,7.796604175808792
1.7491543744092175,2.50705777589238,6.05813164131587,6.444350067804655,12.462753447892267,25.50232886845962,8.754691007765881,7.751248090340893
1.6938879170804357,2.936203606721524,6.133724437332096,6.406395931227104,12.967318986031913,25.48502588483603,8.750750766963124,7.669865829023031
1.7519982251747321,3.356759416924134,6.269521092774654,6.421877019704678,13.32823703706348,25.476358311896075,8.765829237898181,7.644046515587044
1.9078946874852916,3.7621761246542995,6.46536334161151,6.474381286125448,13.560555370443867,25.45864457966065,8.815826841677735,7.682386527015324
2.078448995001379,4.105371481787194,6.665874687830709,6.494338164169883,13.694419865937473,25.361479380096842,8.853208246621058,7.718822383723526
2.175147507042737,4.33657498421254,6.808779374456905,6.417035664639309,13.763256105236167,25.117905172157556,8.815556148326905,7.675075966326321
2.165586522097055,4.45035591071744,6.878235056272107,6.237586452215778,13.802949104294306,24.726764767341674,8.687407277011554,7.529348662299391
2.092921300532401,4.506495312206029,6.924476987956444,6.024614135668099,13.858858189127334,24.274271451720953,8.528843738371478,7.341660892197199
2.0442405664405987,4.610842711361458,7.037380016405645,5.884597381423848,13.986259107789584,23.8962620400441,8.449230245580473,7.220623797253519
2.0937082970892478,4.86797963905252,7.293719524895566,5.902345656005789,14.236972396622255,23.70558764323865,8.545514242285556,7.259072042051961
2.259012670913202,5.3297466668730475,7.712024790143549,6.0961381526608704,14.637747134750928,23.73292319248585,8.848311439467404,7.483720724323202
2.495085119912688,5.965159158367002,7.798018522980421,6.047512644408519,14.603891497425616,23.916664021012956,8.86707181393662,7.460929410077888
2.7221291122882714,6.167737118922597,7.794426063855954,5.930363681704889,14.560513472536357,24.141673412379916,8.837032507946502,7.374286415121595
2.8654848464955767,6.320115802211449,7.72752647104394,5.779024416652796,14.509668893124253,24.296438657975106,8.778580339436882,7.25915981770869
2.8833440254587983,6.816660776941975,8.00764075017892,5.972082878540882,14.424831326908095,24.313643717417744,8.723390332901618,7.167415419037817
2.7716786533083124,7.139301279096331,8.117136137535049,6.075957920221466,14.28376248904916,24.1778355513012,8.940005037145164,7.396312954070153
2.551430509650394,7.327710238315466,8.09160229402766,6.125621786908755,14.59053680804994,23.90677220432836,9.027104694884159,7.575283122785151
2.2503428013234474,7.443702787935304,7.979750334414475,6.149071665449002,14.780474295693987,23.523990647903275,9.008779313523227,7.72260922844729
1.8904766917620726,7.521565280661251,7.811770113635724,6.1444146523589005,14.872850669723377,23.03901067722645,8.901757914441705,7.830111733093281
1.4873795847648328,7.541724690307615,7.589171074412027,6.084209980617913,14.878812820436172,22.445797141718558,8.70802672480616,7.870013081037716
1.0589077761077312,7.451098050802728,7.302400737285449,5.943875382810464,14.792870075338847,21.739813936720324,8.426199887070661,7.823019740864197
0.6324078031236527,7.217928660632794,6.958546539356167,5.730016163704378,14.609097000716325,20.93891058415285,8.071370491162742,7.703351557738057
0.23907352513985777,6.872765940204162,6.591396060772012,5.482659224993955,14.347960959765137,20.08723415303124,7.682622244684986,7.556532849425759
-0.0997482763000485,6.49748885630157,6.246069129317318,5.250673122122447,14.06199430691984,19.237775670104433,7.3093945147955255,7.431788032221489
-0.37515663853333225,6.178229867312504,5.959715713286573,5.067515845062907,13.814743441635747,18.432703666418163,6.992050180206224,7.35780426087231
-0.5746300609375994,5.971030630442057,5.7601308167573215,4.950595693346482,13.66124442133338,17.69999484153162,6.756428937743367,7.34486803283297
-0.6684930154101495,5.901101162311169,5.673997847859725,4.914992123725073,13.646292570143789,17.059319344345294,6.619500496509545,7.402087163584526
-0.6260883919405315,5.971623264662919,5.719161959873938,4.97340864144876,13.265561981123058,16.51644108809644,6.5861782515951015,7.539114755246069
-0.455169103902823,6.158766334230739,5.878938378571503,5.115354642011224,12.945430985898584,16.045621623497315,6.632769979418279,7.744537465218803
-0.22223985878041802,6.405902948355641,6.09017708161999,5.292306519991126,12.772598840761216,15.58581332225843,6.699665332918383,7.9693336830470365
-0.021526100217565496,6.641906489638015,6.271629786956198,5.436367950976329,13.087813065783198,15.068944002194486,6.714027034322175,8.145105079985745
0.08967226961875072,6.819899319617699,6.376841033824052,5.504654314197856,13.230866817931995,14.463052491183502,6.630845587145005,8.229015467227574
0.13592337801264606,6.947398078662994,6.426976415674022,5.512403616813474,13.171921664125078,13.793629918137755,6.458420299055701,8.235941640204887
0.21156636956857247,7.085901216161476,6.495986066369949,5.526752244412625,12.983956132711691,13.12594406526239,6.24876276436281,8.22925558180681
0.42133076089241905,7.319020394360966,6.660835825202451,5.62652467037918,12.811929009657298,12.524369954330957,6.06424040682254,8.279489284834645
0.8153779132255338,7.169923035748143,6.484200240759532,5.493880955632145,12.800385296669164,12.016999510747405,5.944535454910496,8.423324135593525
0.8300568081601785,6.973237424430225,6.266123487014121,5.356051644026657,12.328684803318565,11.581702373146873,6.264812698082268,8.232213862625967
0.8404132498655398,6.78055034384196,6.030848454522828,5.227895580207921,11.94662632394478,11.154403868708625,6.596722155843439,8.027753176820895
0.8323782425997902,6.5875873863712116,5.781943951264425,5.103730265946844,11.673099781269556,10.65436335966369,6.5102587260993685,7.819491759301607
1.1184151527688895,6.350650687330135,5.881787809484779,5.295787625388066,11.822539341839914,10.018406049472054,6.313331076394994,7.921845282518068
1.189410277692685,6.423044243341676,5.797767045346564,5.324969146091507,11.786022690527341,9.229224212711229,5.988617298758352,7.9093582715549156
0.9563910012214388,6.279603515088063,5.308746533888627,5.074365859104956,11.619872442583944,7.346201259723801,5.516381275395507,7.664375214607394
0.8263018121391955,6.19836418292698,5.040278690671184,4.925827640328243,11.677211774883872,6.352458199756984,5.502306915499521,7.50317336121459
0.7457090720923665,6.118134269718475,4.796770368652207,4.804917350623345,11.775167089686802,5.348392216982932,5.528970384754859,7.319714895856185
0.7132600512093354,6.007837097144018,4.5744628420777955,4.706978915783671,11.778241557965021,4.325503793769319,5.554584503810862,7.479038173647482
0.7297894837200164,5.86627938978296,4.3787372225466115,4.633815109805672,12.080067248887046,3.2893325136202014,5.530168110744653,7.590844801581325
0.7297894837200167,5.866279389782959,4.378737222546612,4.633815109805672,12.080067248887042,3.289332513620202,5.530168110744653,7.5908448015813255
0.8204000538069195,5.746707459389102,4.244963751703579,4.616053664851856,12.251378838774308,2.2773693551424605,5.098183361701247,7.349241105233847
1.0215088514357222,5.730390434980881,4.225498073528978,4.700181872523522,12.378904557337016,1.3444348718338355,4.708300489261893,7.197658778874411
1.3473021458504488,5.874364609710868,4.354639181385618,4.912230382367078,12.522238446747615,0.5295628040102272,4.421479732751141,7.183013058169164
1.7699622359381941,6.1812186566113905,4.62398690673567,5.233557888990499,12.281524905205387,-0.16535075138793107,4.263178137707581,7.294402413203479
2.233458044583084,6.610755220062093,4.989105403674823,5.612438987422937,12.307822244841136,-0.7685273043999783,4.21581031774805,7.47627291451647
2.688533974718456,7.110667449397047,5.398769060625801,6.001338327507488,12.590961170204949,-1.312554118249321,4.241093299408857,7.673860986087414
3.1188735393778306,7.075293146775688,5.412436680508384,6.009090619191124,12.500942119102833,-1.812533129845674,4.308454206830966,7.870640830665129
3.5384074383842203,6.977637717039985,5.37113138372839,5.98244831767588,12.329942933336845,-2.2637590444585247,4.406716783786652,7.680827347992989
3.963843816858552,6.852769594979737,5.343333812450076,6.001908905321783,12.029714931769416,-2.6592818021785316,4.5329091749786015,7.53015011023607
4.384390625842529,6.747013287104773,5.735954131718654,6.458366686297803,11.61822359916698,-3.015101616987991,4.669030948518163,7.810051687826853
4.752342322309821,7.1618517832265916,6.048154207290014,6.872821457608479,11.179157600021728,-3.384090292085866,4.766886346535582,8.047898396730233
5.004470358950601,7.505458851214046,6.21546756498693,7.165401503052983,10.787772316076309,-3.8429011579578707,4.758040911178023,8.16116771628062
5.102726822582457,7.748255587311961,6.196613057670055,7.283461805101646,10.82211419272458,-4.453092804662949,4.588571042271557,8.098615890811807
5.067456852346556,7.881471380510032,6.006166349135985,7.235607483605728,10.75224488616801,-5.2199136997202205,4.256320420256893,7.873478060095144
4.9797858417248015,7.936376709210411,6.163435368700236,7.45674561924667,11.175710893354264,-6.079297459387703,4.26335787596411,7.945394527330674
4.9505168383424545,7.940344586128763,6.440570141485922,7.779354314651267,11.167140945219174,-6.925399935686776,4.371665730963361,8.1372023742599
4.663661927282979,7.9486659387701675,6.815210069712063,7.776850793345698,11.16015585914996,-7.662109805593501,4.543883216899156,8.401282249647071
4.518735955591914,7.558686700816549,6.450765045236043,7.455657377281279,11.155808830721764,-8.24694127054416,4.715310054034736,8.658894210126094
4.553179454241546,7.313738926332263,6.280035093235743,7.620528272007983,11.155396008036504,-8.703604504193454,4.56934002411513,8.573370118484586
5.095746104739146,7.67750558368927,6.592976799662381,7.8058418274946595,10.674388369546072,-9.099554068686375,4.452458637288545,8.464213118222604
5.597230568120891,8.042543018671072,6.892267119228858,7.930423963239805,10.782095249411833,-9.502874594986316,4.295725244796968,8.25965608473861
5.977808279625004,8.379911659628656,7.106378622274238,7.954713390378202,10.911735457582159,-9.942923950032291,4.068241826008294,7.93689188399819
6.225225510900283,8.707904649608341,7.23205437168266,7.909370080412405,11.097033044958867,-10.398504058858432,3.798303083078798,7.54563137516684
6.392565204541718,9.073325463809862,7.324939962134705,7.878905839972183,11.37046142650594,-10.82249230152086,3.556353103146626,7.18876255337008
6.554510189160152,9.507777082298702,7.448207197511723,7.943898933826648,11.738296749683395,-11.186874787475528,3.4052156374714038,6.962747408794287
6.752480477770308,9.991728999934255,7.616987004751636,8.12038079027176,12.164369139231628,-11.514520553457018,3.350802993314235,6.893539510676337
6.968931733949956,10.452153040945289,7.781805619499836,8.342664218347485,12.565296353999578,-11.871417396518677,3.3313859887867086,6.914136379090657
7.147320221846813,10.797947521745828,7.863626110561153,8.504495578246132,12.821755158975325,-12.322349556838299,3.256293245630792,6.903341933138076
7.239122931402522,10.975372700952505,7.813098306113688,8.529091062093762,12.817078453519304,-12.880525100703608,3.067538235405857,6.761733089565288
7.242730995849778,11.009566890452357,7.6501651981726635,8.418750078089214,12.498454069288648,-13.486432868175656,2.7810998862155407,6.474174407201089
7.208852272496026,10.99910420060867,7.4565072267394505,8.251871863338021,12.453708777926034,-14.032246639020535,2.479514666645905,6.116880112145609
7.210059888710266,11.059152144837288,7.3262391206627715,8.131739587498023,12.38372304787395,-14.419700240791126,2.260935271498803,5.804037097226139
7.292987640797663,11.249003859362073,7.3066119933182,8.121058807382475,12.271687913861667,-14.61824119577589,2.1784072182103382,5.610091366629953
7.441444040661975,11.533310446730306,7.365038029358417,8.202354300740264,11.73600077067481,-14.688713318774157,2.207862762521346,5.52053979204194
7.572800264227606,11.798209008912163,7.400459644920382,8.285535755843854,11.325246372857169,-14.758257180486616,2.26142880791557,5.44235887403505
7.570638831238743,11.904158321358816,7.289646606309509,8.253783462144032,10.965440774791926,-14.961704880451594,2.2319040039281766,5.261213969636983
7.336179789282021,11.743591849178506,6.941982361617242,8.018603742665682,10.534874213453685,-15.382082500512125,2.0395517471442615,4.903005093204999
6.833092393981548,11.282782092363684,6.338180044788628,7.5565831817818125,9.90206864099402,-16.017289864634748,1.6611395719829458,4.364125770608994
6.106614876559542,11.110534973378526,6.008178124557187,7.278692931986719,8.989170301773207,-16.781562679704813,1.137237442216008,3.704031714155866
5.796540502440458,11.005479973100261,5.736926210280941,7.042091906551211,8.51539741890209,-17.535863880298873,0.5597505322429835,3.4297270005451486
5.5562686701986195,10.974297964534456,5.544900105943809,6.872708787368551,8.022065480872916,-18.13562590409497,0.04028322118504377,3.2539907583211582
5.376983497705736,11.005736700877497,5.41867467328879,6.760577185136606,7.534116045587915,-18.48047756614651,-0.3346923520770522,3.152368690309816
4.893970141393026,11.080190131863663,4.943963059509474,6.336284162929933,6.72000757095187,-18.546579825677746,-0.5428543008437932,2.7595978370441037
4.571773149097272,10.780209915676712,4.5961300120638375,6.016659419336418,6.1260376002266606,-18.38574200633766,-0.6354700458135304,2.4410613378295345
4.3435998032961916,10.511442271024544,4.299928096532148,5.733337365116061,5.5631549643296845,-18.09128849701528,-0.7082019644234255,2.127077495337352
4.1407343866427695,10.200900447738988,4.000323493095065,5.424191051388977,4.8302717808922155,-17.749822936120687,-0.8491626454209842,1.7586614821552748
3.9209026554450674,9.83759746892477,3.684531125308536,5.061465368588322,3.850070139122524,-17.405660819525995,-1.0951345998786401,1.316481364953888
3.6745651813761846,9.457623313098477,3.371996517211611,4.657507536746641,3.2441385796019464,-17.05458629158872,-1.420401431440653,0.8288362903180819
3.4150254077775286,9.098312821870827,3.0890558037584026,4.2496418746592814,2.68319626593078,-16.663273645680235,-1.7596643901565576,0.35495876906477947
3.166027305130381,8.767528933997507,2.8522484841622138,3.8775914762518227,2.2675664714506114,-16.19514727242277,-2.044053760341704,-0.044789007220862743
2.9560453840312677,8.453057748280372,2.6703512780505445,3.569038126041438,1.5652847342812892,-15.624672688441297,-2.225401292777152,-0.33256582484536423
2.815546753110738,8.151583823115287,2.5528650427616735,3.337220299792271,1.0704574383032064,-14.938986054395977,-2.282314797388317,-0.5010084768556746
2.7647538234378555,7.875526821765135,2.5035376172158013,3.179070136935514,0.69425798043657,-14.141326952993273,-2.222707711607438,-0.5742728329340256
2.788195458204997,7.621634026370232,2.4941161282155946,3.063014780444764,0.31849418523688694,-13.266157337771606,-2.0956531861306273,-0.6143689777003728
2.814723117834307,7.331199229503679,2.4428653751239553,2.9161985546796827,-0.18555706877136238,-12.393174375246863,-2.0006138031668304,-0.7255808759596469
2.7327561708339916,6.891562237466617,2.232629307519914,2.637537489779305,-0.9267413255578444,-11.632846869315335,-2.0654828543603063,-1.0319826397012515
2.4494719991277516,6.7602111812320675,2.1838297648469482,2.5269927350391512,-1.409376456682876,-11.072976716823892,-2.384111828623346,-1.6171224360481355
1.9617150099099319,6.4246222208979535,1.959934630581817,2.2651846126984805,-2.0003816303206032,-10.714446534830254,-2.9464916043397693,-2.0492424151349975
1.3844765677212345,5.958422937513554,1.626314568126084,1.910358706805935,-2.114613685741994,-10.446703182790486,-3.6166768206493254,-2.1392701042425264
0.9049833691913534,5.515195484633758,0.9592882933865866,1.240796547715537,-2.5951401893713,-10.093106330451436,-4.187824025218443,-2.5357711124194426
0.6811718794515932,4.752828728373396,0.5740478520696194,0.8272266733624332,-2.8695967006354466,-9.50745094276007,-4.489848871072198,-3.0097961503491844
0.7442641554389704,4.265880473262026,0.5007923785725482,0.6974306827791112,-2.969184432931064,-8.664651285842414,-4.4865026822792915,-3.115898061034285
0.9691295267909065,3.9194846054215895,0.6117281809781526,0.7283920863504343,-3.3940171353723225,-7.687000162538714,-4.3010159447981575,-2.990094140060183
1.1391828404240285,3.497677330967446,0.6919315306855094,0.7125051203486648,-3.817997409609905,-6.782812897852283,-4.14944888578123,-2.87435229051911
1.0719391658062263,2.8341865810751927,0.5629307391260173,0.4802906202752479,-4.412594405052918,-6.128436571991009,-4.217030572840902,-2.9788193071933655
0.7251755024613143,2.4526193622089285,0.18224153696101608,0.0007077447145611426,-4.728299989609669,-5.765519558448881,-4.552352703674053,-3.3643311113394736
0.6225761922128882,1.997508950623353,-0.34441387065955764,-0.21653007994836085,-5.13590995855557,-5.57969204257687,-5.045818449740847,-3.9199902136458564
0.5920622597866686,1.634801547613918,-0.42346857943076044,-0.37803536970156726,-5.487022616377168,-5.371733804600152,-5.501949222685028,-4.4435270374641025
0.712376848834285,1.4597483907799664,-0.35905130930171625,-0.7336099798612818,-5.663755777289017,-4.9701812217095105,-5.753053874907038,-4.763287925897145
0.5980035324636956,0.9681107626916671,-0.49545993236715274,-0.8656464717287059,-5.679838031943696,-4.315016912526861,-5.743384485521674,-4.8254504223198476
0.6075633647875271,0.5840485832393878,-0.5241083945138588,-0.8623148746833564,-6.1312150852324825,-3.4728597569330604,-5.544476755787527,-4.708455929990394
0.6059422889971392,0.13477087579015695,-0.5854552014549921,-0.8721259406378371,-6.604230383327089,-2.589476210228349,-5.307875296432544,-4.573964770870815
0.4796320548172481,-0.5012231906829603,-0.7983974441223962,-1.0306483330354461,-7.248590133220103,-1.8118920572145905,-5.187230110562082,-4.586656165035914
0.19454783925012603,-1.335347378346884,-1.1980847151548153,-1.398085574955644,-8.120221929064522,-1.2164478912872583,-5.265157470914613,-4.837312175323931
-0.18777778685155277,-1.6760966764897522,-1.3110339584122659,-1.5370084256564938,-8.647405445299832,-0.7729583246995749,-5.514648973789479,-4.829349908919596
-0.5433043778069102,-1.98033536800078,-1.801567800398799,-1.7362011407560631,-9.177476138759186,-0.36274642051986833,-5.814182492567627,-4.903184635152877
-0.7771363843113583,-3.0559386427678232,-2.229672587148091,-2.463966206671017,-10.764494821715996,0.8563742478245375,-6.022876930769408,-5.618971765529295
-0.670991642774966,-3.2809084947825045,-2.1721881389892888,-2.5529787812686195,-11.178992351245185,1.7108305238383517,-5.86045908165514,-5.67678312936639
-0.5622767686178749,-3.470590539444968,-2.096137084647351,-2.571235421962042,-11.421000540832381,2.5912505851506196,-5.645257342181788,-5.639033676184737
-0.5692542722434532,-3.7711194378899604,-2.1360292034673902,-2.6419829945899886,-11.59317911997952,3.355602160357665,-5.517636785660679,-5.638089882038158
-0.7318675445243776,-4.242512607575306,-2.3370076675698415,-2.827744272500951,-11.743774742214926,3.935518671313967,-5.5515540820891385,-5.741400998213591
-0.7318675445243776,-4.242512607575308,-2.337007667569842,-2.827744272500951,-11.743774742214926,3.935518671313967,-5.551554082089137,-5.741400998213591
-0.9927536549112176,-4.827268383087107,-2.6326372498767823,-3.0969866190356883,-11.838097256233176,4.37951864417077,-5.7119193211646415,-5.906591717164205
-1.2390674044431442,-5.389606531959717,-2.8939974020447683,-3.353643936613604,-11.799722188157011,4.8224343388450315,-5.883113001258752,-6.014424060522092
-1.373483674217208,-5.802457044300906,-3.0128800222022796,-3.5039581457160422,-11.591856101015388,5.402741043679084,-5.944061346733988,-5.953154400560472
-1.365832746998074,-6.0242875309353,-2.961700247946876,-3.512567012687196,-11.270733984747428,6.183459950827594,-5.835762965353968,-5.692769190003426
-1.25596968068598,-6.111704491071735,-2.7948704795401924,-3.4137263425129407,-10.956954142790726,7.126001728980517,-5.579149277768491,-5.2999828956707695
-1.1161309781250353,-6.164492036575529,-2.601583587529274,-3.279566320000638,-10.741657884166132,8.125302455791289,-5.242517021279029,-4.891841953369182
-1.006148338665955,-6.255126128899256,-2.451249510219081,-3.175340817478806,-10.612973691623731,9.072641479081975,-4.893044271223367,-4.568179655719138
-0.9509045457630927,-6.399248867950571,-2.3679817481648846,-3.13276172715356,-10.476335709933345,9.901903551772325,-4.568953632406365,-4.369976550277173
-0.9460160263320777,-6.576075785906106,-2.340432692200567,-3.152025395323321,-10.250219350982736,10.597971040152084,-4.28242782449848,-4.2827433078581505
-0.9764529486290232,-6.763572750081355,-2.346836112085608,-3.220317974593943,-9.942219234464089,11.177504189126978,-4.036252008669888,-4.268110198600004
-1.0276167866821049,-6.953617494337716,-2.3707140715113706,-3.3255422532512107,-9.632901114762726,11.667159922298275,-3.831759627762632,-4.291036073797277
-1.0802138072071765,-7.142055172535073,-2.397832228442911,-3.453611245486989,-9.388461229935912,12.095629761053392,-3.661606029408121,-4.323563108954297
-1.0993211467623327,-7.31121269113085,-2.4048870174749655,-3.5775261061712085,-9.187906393183402,12.495850755180902,-3.500166848885606,-4.333746193567423
-1.0372426051151513,-7.424927424876388,-2.3587302446875533,-3.657672229328842,-8.930981068297502,12.902141363023054,-3.3082934962842256,-4.28312317592036
-0.857413346830062,-7.44449800481543,-2.2337187357715917,-3.6616079253052844,-8.521018506673112,13.335077124919167,-3.054346732102214,-4.143531004024266
-0.5629469790915171,-7.355407692789446,-2.033960738788919,-3.5882274275290826,-8.489777957607583,13.78501728851304,-2.7354441106751066,-3.9189487294702694
-0.20432982609765582,-7.181925865559948,-1.7989490453429062,-3.4724675200612096,-8.44540542888652,14.211260521823299,-2.381134351967222,-3.6491255943345675
0.14218543199887887,-6.975782700526948,-1.5855863236177945,-3.364316966406739,-8.50105554132294,14.559596920680951,-2.0379873977547227,-3.3887013147613225
0.4088711998560266,-6.790353844881399,-1.4412795701896552,-3.3003448059910143,-8.270408639192162,14.78359640211196,-1.7494977327072814,-3.1785115224802922
0.5596978388796022,-6.663153120705503,-1.388029577233872,-3.290442887761378,-8.253466067873182,14.855152354553093,-1.5446083322719775,-3.0303611688892813
0.5928558950200529,-6.613020508511896,-1.4231569784227043,-3.324716008039128,-8.315792815008727,14.765168769758404,-1.434669738007486,-2.93107646491537
0.5298928587080092,-6.64012730840002,-1.5276452276697956,-3.387506522599629,-8.306912272914099,14.524403853163248,-1.4113374681275714,-2.8554246528082428
0.40209979817404984,-6.7238668513090225,-1.673627322631135,-3.4653950933337017,-8.15008587053692,14.166263882839017,-1.4450154015630545,-2.7766576705428663
0.23826437813305815,-6.830480869286628,-1.8319397581771881,-3.5485034691390887,-7.875995751044934,13.741563754123677,-1.4925508403909766,-2.6739617334267574
0.05436957409779668,-6.93615850853048,-1.982793919859504,-3.6319586851207912,-7.5954722845783,13.299113423088873,-1.5180813999809208,-2.5416084256420763
-0.15131526746124024,-7.047694451055938,-2.125091713298829,-3.719826215107998,-7.437312699808354,12.86319432307074,-1.5153543386201858,-2.3980968828567844
0.010556315077498723,-6.69977885978418,-2.27543659696074,-3.4496906490081813,-7.437475091795835,12.428041551122222,-1.5127350794842476,-2.7224486339499494
