Fz,C3,Cz,C4,Pz,Po7,Oz,Po8,Inst
17.522650316856797,7.51760139957541,3.1297241249925443,4.220798874770653,2.691591896627188,-10.099072967320343,-31.516150834018447,-1.1484491039506348,g
20.782477784079614,8.86737031950056,4.250240377979939,4.922358071869811,3.9777719345391986,-7.711733287651529,-31.482214323114086,0.49672230315937876,g
20.638419388233213,10.38921705185589,5.825467752198371,5.777709144339903,5.711806436763498,-5.127174099914596,-29.937700037954595,1.9359821307964622,g
20.528726388257226,11.820478726927153,7.519669181822026,6.548652044735523,7.547071710245175,-2.5829780528340196,-26.12180380658831,2.7894221209281587,g
23.901806833103997,12.84134643089178,9.037471172338323,7.071760313406483,9.174493261169301,-0.3489590142236869,-20.047603122034154,2.7393013772491663,g
27.056487093128396,13.264338390410776,10.296124880517018,7.381400694826614,10.496721971251636,1.357928403301735,-12.71966643525481,1.727992209479833,g
30.024106285284653,13.141503765629945,11.429586841112453,7.654554587991662,11.640701476808731,2.4204292411400683,-5.622707669346444,-0.011091632953218866,g
29.468023117030874,12.69106743347349,12.604281605521392,8.028656485425728,12.779655674876015,2.802424275864889,0.1901544468278374,-2.09513813144224,g
29.115291133291862,12.105215713589294,13.796227618250697,8.458789566435245,13.906458174409803,2.499965834417324,4.689413325664407,-4.182898877189638,g
28.726304446575796,11.402771605082139,14.72382351509169,8.740178422330626,14.755123162113373,1.5021189091807126,8.537143660511461,-6.075844370271976,g
27.975256009717675,10.44020555146299,14.999654659546342,8.674595239942633,14.94492702927578,-0.20533708743983095,12.021815088789348,-7.672090933388041,g
26.62369680285546,9.056516094197082,14.381107744107501,8.236812574417453,14.235444044159062,-2.5647946649931113,14.278466202929646,-8.83435864939674,g
28.20910707645051,7.228876566704381,12.92362419133762,7.595020667315412,12.691935155308666,-5.334812349966297,13.679229145601653,-9.315503788192537,g
29.253734776272193,5.119109026428492,10.92240915176531,6.959239365752014,10.632392801342597,-8.06672899210309,9.163583558893006,-8.850193105472037,g
26.29167011440566,2.9790557171173555,8.694838792085335,6.383981025180445,8.399144653621665,-10.262606298318364,1.3437190734841356,-7.364179256057805,g
23.016714902882605,0.9960395914444211,6.381611592303379,5.704191545464644,6.140676570607747,-11.625045358098152,-2.5182306245477353,-5.113259836956124,g
19.427483517634993,-0.7871026030785742,3.929649295702795,4.673555232073104,3.7845847776123707,-12.186570361026618,-9.989575927696162,-2.6040334550762845,g
15.521522508026226,-2.4104438416698546,1.2619204878068737,3.190438603069256,1.2162870537523636,-12.2099773548543,-14.563722440700833,-0.34487893349394055,g
11.421050196874926,-3.8672531195833484,-1.531747599026371,1.4128550875568013,-1.5105523277169812,-11.961786646588571,-16.584059486622913,1.373127938560638,g
7.403810209659666,-5.048947252295017,-4.166944839208825,-0.3384307846150202,-4.131803446702515,-11.546479539966299,-17.562712718814865,2.504945154461688,g
3.791279722383355,-5.823077123871153,-6.322957528086639,-1.8049774715553863,-6.330129738553174,-10.905526545417047,-18.731968130402585,3.100639464533317,g
0.795070288652334,-6.155439075139086,-7.831131552895885,-2.9553086260846713,-7.932129683453877,-9.956983882245117,-19.961395062036456,3.1263411508802057,g
-1.5323590099461764,-6.140971975552832,-8.719188725637725,-3.9543946132937355,-8.961547356783665,-8.763355939348049,-19.98301403139801,2.4189454796579635,g
-3.2070715279641293,-5.905541020512634,-9.082995393349846,-4.9607388155933645,-9.512214065382336,-7.586654334064494,-17.66534902690378,0.8218335528815898,g
-4.186250390430676,-5.4691148716210645,-8.9125456770921,-5.911362608683094,-9.567111665439889,-6.760484565435017,-13.113678632203108,-1.6076913960899657,g
-4.332261341047051,-4.696308248189724,-8.029697088526069,-6.470034344473483,-8.929399475647891,-6.470539806234854,-12.740214969386804,-4.501992762558356,g
-3.505781202295765,-3.3867804835903783,-6.198042003856137,-6.192044696475266,-7.335525530537028,-6.635679691006255,-8.12129756141152,-7.2935450099218,g
0.7867034505243234,1.0044924943774152,0.3796999731227196,-2.3211635064748632,-1.1323406981424164,-7.258707335476269,-4.73532060911314,-10.674703055075625,g
3.575123307107856,3.6556337096753935,4.472221367741025,0.8623665767669115,2.8349736186741894,-7.3128075631752525,-5.387767352660497,-10.910577539738721,g
6.217625592689733,6.199425740272536,8.44334042913982,4.301999131623425,6.7304916867391835,-7.159381129715115,-6.576611934855819,-10.255735893104198,g
6.217625592689732,6.199425740272536,8.443340429139818,4.301999131623425,6.730491686739183,-7.159381129715115,-6.576611934855819,-10.255735893104196,g
8.456369895133205,8.484952244974481,11.940175477895938,7.666357909636558,10.221505080702418,-6.879602351226436,-7.970609042814175,-8.815520029364972,g
10.239851101539365,10.52270729003896,14.821804373652858,10.83498934632094,13.19027146652677,-6.528190586135429,-9.781581746313181,-6.638845952747604,g
11.595186490577031,12.334052815835504,17.04879639048456,13.79827655561393,15.606098097352012,-6.065945922303039,-12.28734093965545,-3.7532615266732576,g
12.45469843888663,13.799616204307489,18.52326641722268,16.470349991500303,17.356020332857803,-5.376981284937685,-15.365793566894236,-0.25307945676161303,g
12.582763484225882,14.652089651049925,19.02164185944202,18.58290524031422,18.184941371252318,-4.3661385029065345,-18.560192492969982,3.650020920232316,g
11.661500069877508,14.618717183310466,18.271404430726946,19.75907878737301,17.791051111834147,-3.0409370496770314,-21.521411802045765,7.666331127933958,g
9.476719334237403,13.595744704220902,16.115024234030862,19.71223066031051,16.004262990792455,-1.4868886233729544,-24.24535322923099,11.516003870715776,g
6.082554990748504,11.729878723284884,12.652327944141716,18.410975423944368,12.925136941070752,0.231296083030274,-26.837466908500453,14.975663023174253,g
1.8395427399488764,9.362113059792152,8.268273290812726,16.088913318020396,8.932474838762028,2.123994898184204,-29.07570558455682,17.849653923993177,g
-2.6979270044973767,6.881022191720315,3.5221801682803417,13.111052072023298,4.5545058285332924,4.22974053388629,-30.193166346840183,19.924345145392326,g
-6.969327287670909,4.585218959660411,-1.0350370780729485,9.815375812252508,0.2909402575282233,6.524143491265091,-29.11871393208266,20.984895568562592,g
-10.553398538187242,2.638886303384157,-5.001349781372523,6.445439448372127,-3.4991799172472695,8.869353804427428,-25.145989121069977,20.907321437460364,g
-13.20948973108995,1.1217591246057845,-8.151606756057198,3.1956011910565403,-6.597153176516502,11.040542807894145,-18.62811669302381,19.759594606987196,g
-14.845893398539065,0.09496434964687701,-10.379431678785265,0.2897462286366457,-8.864639403471838,12.819085773445332,-11.013591990429424,17.82222108385664,g
-15.476557347669921,-0.3876612028288117,-11.631823901753078,-2.0082899521908795,-10.20605168167417,14.100063376626276,-3.918372891800331,15.485965024416396,g
-15.186023217426783,-0.31202601546382425,-11.886259959313175,-3.47882664373355,-10.578700592032721,14.922296942515993,2.073042547797754,13.077381715640735,g
-14.09202306998012,0.2761445134627702,-11.166174628143319,-4.048244125736521,-10.016528220727484,15.369050547417583,7.6873256151271905,10.73802522660846,g
-12.318691674410413,1.2802180113659372,-9.569806209171341,-3.8081874134909994,-8.63468408377896,15.42383544084215,13.961143358863747,8.457492685882384,g
-10.013509016127724,2.559290777461853,-7.291287880820465,-2.9353931637448265,-6.61649189354732,14.94125955315848,20.92769873768148,6.226669350069374,g
-7.402916091717269,3.920597698012304,-4.614304375515206,-1.5942942701650455,-4.196160707221624,13.776672503299205,27.25031287959025,4.1606523482266065,g
-4.825667058731798,5.132062861444071,-1.8666107795767666,0.0904560635441051,-1.6382041444237778,11.938563695790782,31.068740926961745,2.47478684821667,g
-2.6834712699123964,5.982789701783557,0.6497380531595519,1.988854676178844,0.7917472932698425,9.614161632973785,31.252862338447557,1.349967307730489,g
-1.30945359446236,6.365624544086515,2.717956993599012,3.9169528515578307,2.864600703354855,7.0707068405025995,28.078836808490433,0.8253959668256506,g
-0.8228256879537792,6.323180997831998,4.232267290633321,5.644074786363782,4.4269607659147905,4.543009878892133,22.899022759472395,0.8096084994367823,g
-1.069193911157257,6.016581401614376,5.188106917297341,6.954484866170875,5.425590135727877,2.1836815885865155,17.111139325102176,1.178693668198035,g
-1.7143311750168237,5.624209146490027,5.644270158125222,7.718160810365428,5.895720056881279,0.07921738180921416,11.266464975939304,1.863919446263549,g
-2.4572221348301126,5.22959780803682,5.671550096226678,7.923360111893226,5.9115152078203055,-1.6937057347252722,5.091331070428479,2.8582543656100894,g
-3.215183626642238,4.7809108959517586,5.316747715465515,7.65076739334967,5.533807822127561,-3.0178340369807835,-1.642879736392198,4.145055046969709,g
-4.127259859767375,4.1623589479621,4.607965870089397,7.009161283293963,4.798227957949891,-3.753596797270402,-8.361086787067038,5.616781725770369,g
-5.3652519405584105,3.324943416106514,3.5926210211209098,6.0826897123159025,3.7472877874791037,-3.8326108753168144,-13.869417179708211,7.065143543439802,g
-6.914431694823188,2.364900282843973,2.367970888863185,4.927562261606779,2.466748212683695,-3.332713142087522,-17.22802541633278,8.262787338890098,g
-8.517248859112813,1.479487315745971,1.0729236098036594,3.6037341816565673,1.0874447071397078,-2.442883604324275,-18.330801199933894,9.062288918033495,g
-9.83189508997044,0.8342102238062136,-0.15451656356731364,2.192357183926077,-0.25081931765036786,-1.35705397727287,-17.67721646787786,9.414346709524686,g
-10.676804440912889,0.4455133502880665,-1.2266639610846297,0.7762353113650283,-1.447423872053203,-0.21831111834592382,-15.752016612897421,9.296113053703712,g
-11.161818514153037,0.16714366485952686,-2.133581925708476,-0.5884281567111065,-2.469043498902739,0.8470101572306012,-12.697780306614966,8.642252354913712,g
-11.590799769734476,-0.20702793676895662,-2.927891608622507,-1.8732001367982292,-3.3367185122954424,1.6847704320178991,-8.506596278116202,7.36115085618493,g
-12.195458994284344,-0.7916959740869016,-3.6665200417819706,-3.054433505069721,-4.076861643053447,2.129096496805977,-3.462897045094489,5.416459080634597,g
-12.904400781221986,-1.5184433924690266,-4.3442479239595695,-4.09733731326568,-4.673078277316067,2.0593007832639154,1.5919195566461783,2.8888797575541942,g
-13.346168506198566,-2.179232552259758,-4.87442951843258,-4.967142778762269,-5.06285623299288,1.4459907808556816,5.482833678877837,-0.03526237184433043,g
-13.107436653427069,-2.5800883757362083,-5.141052816546518,-5.658862547328908,-5.185281373010397,0.3671822891936417,7.3438334048600655,-3.133615444958406,g
-12.049892598806123,-2.681684157386422,-5.080788628300229,-6.215363100191534,-5.033919369939451,-1.0117896332931173,7.1469327270088625,-6.221934184738677,g
-10.42958682044862,-2.6038841067733225,-4.722444203243464,-6.700307531181183,-4.661365716507772,-2.499926150032963,5.572364308532963,-9.178550340424511,g
-7.336744934339288,-2.3558881745860605,-3.449236229784497,-7.383702537429481,-3.477712928093213,-5.25412011066693,0.5901629405086208,-14.215640570745578,g
-6.365084211929549,-2.0757078239274795,-2.6456082220943697,-7.282851748320352,-2.6969704826256575,-6.315037569616746,-2.8308381530260096,-15.887301345455057,g
-5.674997466733778,-1.5170838119705319,-1.7623668217491943,-6.662234080515633,-1.8137467386662565,-6.995699339848865,-7.028902365200116,-16.666002001959548,g
-5.674997466733778,-1.517083811970532,-1.7623668217491943,-6.662234080515633,-1.8137467386662565,-6.995699339848864,-7.028902365200116,-16.666002001959548,g
-5.109476485501416,-0.7218007845397392,-0.8687409783614669,-5.531134034524937,-0.9290377507476139,-7.185666239290536,-11.634042706578885,-16.418196658056907,g
-4.692648103116549,0.04018625463884336,-0.11197820399016072,-4.097632225899787,-0.21688297656406236,-6.8746719161997785,-15.894712066902096,-15.178944834364188,g
-4.637436921624433,0.4179269089410608,0.3357537471448812,-2.661201939426815,0.15938932666184727,-6.157909484842724,-19.037210693715917,-13.106325648602958,g
-5.155084841519168,0.24082412002370127,0.39401522879741735,-1.444910695379342,0.16466066751216343,-5.166638013997458,-20.677855672404526,-10.385469360174307,g
-6.237415750371575,-0.3142308702077566,0.1591069335686144,-0.4905194166957802,-0.05443898934301796,-3.9933209798491083,-21.045330290878873,-7.162589357018083,g
-7.61418992693774,-0.8169676010322588,-0.14153985823349552,0.30371203730356483,-0.2536130327093542,-2.66122542434575,-20.785705215816016,-3.5560350934692098,g
-8.930521820988009,-0.8988215301095093,-0.3190770505320001,1.0286581810987947,-0.27441026109144706,-1.14606102398584,-20.42152428804922,0.26580648922888556,g
-9.984805622998396,-0.5413994599429844,-0.3812701254013001,1.6193730329846692,-0.18152719430613845,0.5588264647369209,-19.95313708814651,4.006991745283536,g
-10.819638596680687,-0.0887776476267943,-0.5301622045695535,1.8507602526418108,-0.22448283075032666,2.373935080164107,-19.01306595055534,7.256155005374678,g
-11.608707489742415,0.0369323252740084,-0.9860052325251892,1.4884960403015328,-0.6388150056052052,4.13868221936326,-17.36311846127598,9.617155434504642,g
-12.466784448783844,-0.3189318491721157,-1.782218883964377,0.4692386949564177,-1.4444764995871118,5.715799984008396,-15.148375819461723,10.87215937733972,g
-13.352485769646364,-0.9228326558342139,-2.707517513953235,-1.0411618987243474,-2.408606679716996,7.097013567676493,-12.680302301356672,11.042553075329323,g
-14.127614387659216,-1.3505475258151562,-3.451052878894438,-2.7513363126176373,-3.2098833541719527,8.382241473118224,-10.068154975961177,10.299702965419517,g
-14.70456432343307,-1.3384321452420351,-3.8405759117545264,-4.419007186934199,-3.68098186382759,9.637708651512193,-7.068632957897515,8.809831722856508,g
-15.155023150875815,-1.0106640101183018,-3.9848704256078236,-5.967609295047099,-3.9396395656068774,10.771922324419446,-3.2266200233577065,6.639084563849181,g
-15.688270478541785,-0.8090661847850855,-4.200704809547757,-7.472882344473845,-4.299888603898861,11.540956054045104,1.7818333552533105,3.7788118718257957,g
-16.504415286892915,-1.1797285979989216,-4.771753902741414,-9.0363501573409,-5.025284239889178,11.66860875807678,7.7492677649314174,0.2610324858293115,g
-17.624911744485406,-2.2487863469790055,-5.721897866630978,-10.634161486577295,-6.110933191976564,10.995336480049021,13.775702707918594,-3.720792739348822,g
-18.825211781265928,-3.7203771041132803,-6.774472131872935,-12.051673946554507,-7.256388390433221,9.573189284157461,18.620593009528754,-7.779994511842856,g
-19.720415804536138,-5.059704997514309,-7.52160095350518,-12.961553906375167,-8.041613086208763,7.645521980011945,21.390326839383327,-11.438440820646395,g
-19.950902663648655,-5.820413833577937,-7.673090715084561,-13.097578639111095,-8.17404451571284,5.505616170046425,21.970194834193983,-14.303536234643314,g
-19.364158695023463,-5.89092448612941,-7.214951882549914,-12.400705972224191,-7.643696125442292,3.3333846036910857,20.83948240020423,-16.189030233435382,g
-18.102942208732053,-5.511229977525458,-6.39030305782687,-11.038247028325296,-6.7025438269105635,1.1558297544581695,18.524359502589004,-17.094294182329367,g
-16.552534231677214,-5.071488689036004,-5.536972599368049,-9.297554978018669,-5.699570175211347,-1.034288077205304,15.188743302497096,-17.086676100225084,g
-15.159918084943513,-4.8378024857532775,-4.896500321314389,-7.4410003163795135,-4.884871779118552,-3.129429643455559,10.605938047537952,-16.206784098879137,g
-14.213877547321275,-4.787586226731737,-4.5128586636912065,-5.6175477557839795,-4.305966540059214,-4.873979789863119,4.472335583737673,-14.46786875634088,g
-13.718743630215332,-4.657686857065403,-4.269842136342047,-3.8725491687724682,-3.849784271345392,-5.961842200658403,-3.0991818775391335,-11.923879052017359,g
-13.44638452054544,-4.159515638253806,-4.02014532568477,-2.231043059903569,-3.3803112764843384,-6.174376451882458,-11.218630693019687,-8.738324891916795,g
-13.130004313153197,-3.2012020709464837,-3.707259906665415,-0.7855688095496534,-2.864349797972845,-5.475644394031031,-18.36185086289656,-5.205777537180444,g
-12.663514398320512,-1.961178004528233,-3.404600444199275,0.2843738638593085,-2.403853498481549,-4.0271849298337665,-23.04507418450385,-1.7113175819334274,g
-12.168141114489568,-0.7688304562701498,-3.258810230621787,0.7870863668689644,-2.1645100256424215,-2.1120370110618203,-24.552736014916555,1.3569314284977605,g
-11.882932985669655,0.11957401330368596,-3.377463537890784,0.6377214718284719,-2.2512264595414244,-0.004560165715510145,-23.187910574614385,3.698781198490323,g
-11.962308864254476,0.6907141168759763,-3.7306912974229753,-0.06974093011517066,-2.6107029085149387,2.122383630689125,-19.96730045784242,5.150471214280612,g
-12.33229599048707,1.164110007782764,-4.136090336654156,-1.0925242899422218,-3.03170603673257,4.187736533442783,-16.050101425269503,5.681672076528835,g
-12.71274363865246,1.8031120322845837,-4.35052572282151,-2.1474384166192153,-3.255321145782542,6.129336481360646,-12.187796577900814,5.366151811267606,g
-12.789554001310552,2.686850088973096,-4.215232577697646,-3.0276558328368783,-3.126397644625171,7.855830852907365,-8.421744796512908,4.341790151052435,g
-12.419051605532086,3.6188293368442324,-3.754434633557711,-3.6679016771321216,-2.6812434159823293,9.248641345769114,-4.264542767203565,2.755785831692903,g
-11.734021962513328,4.242775724272631,-3.1580459952031332,-4.130863732373725,-2.1121211645538045,10.179062530723385,0.6492828087679641,0.7123036730026389,g
-11.083684833510619,4.281031167282428,-2.6588717002042404,-4.5203843903954395,-1.6352231202462495,10.532474211418066,5.953075961359429,-1.7267288467300859,g
-10.833025053381338,3.7283244541409815,-2.3823914677559057,-4.86598450709636,-1.3489429045149666,10.262062337818707,10.580795648276805,-4.464169472835725,g
-11.1356708679655,2.8674713649173245,-2.266135669874614,-5.054044914907493,-1.1739450217715166,9.44696418259256,13.43933025059621,-7.270252698261494,g
-11.82855892185748,2.0905653850559967,-2.1064164624962354,-4.862128893868472,-0.9172440060185345,8.28618565159559,14.096775240218907,-9.76210850093278,g
-12.831990389728656,1.5030439519411767,-0.9932614204994596,-2.6409072810338268,0.3448100970060429,5.825593259540849,10.956846695612303,-12.181561320123143,g
-12.54738409571514,1.4356529492745886,-0.06689068356697012,-0.6613513525479158,1.24983853646662,4.8186942241067445,9.04003921216552,-11.73018460950384,g
-11.698055904903262,1.262924133513971,0.935388798239399,1.610738180584915,2.162790119668875,4.025692596717102,7.712400079165446,-10.344203903293048,g
-11.69805590490326,1.2629241335139707,0.9353887982393992,1.6107381805849155,2.1627901196688755,4.025692596717101,7.712400079165448,-10.344203903293046,g
-10.455154813540219,1.028990594734306,1.9456530398638925,3.924925624707452,3.0481443916471296,3.423821079043389,6.81395068872021,-8.333609329365759,g
-9.003393050060067,0.987931234427321,3.0068948971847798,6.1339386341869755,3.9899399653876815,2.98273160502968,5.741034447697471,-5.932108953168569,g
-7.458883549732394,1.4251111320497947,4.206756373743547,8.209686975564392,5.1060670209262025,2.7199792618336516,3.9676588615155595,-3.1982615993627648,g
-5.873216276564266,2.4671530500867864,5.568364971513914,10.160757891547501,6.428403304304659,2.7110930632846832,1.393115468365936,-0.09038133735043594,g
-4.300826747170525,4.010277910853121,6.980974614088048,11.92027854236655,7.834636574650887,3.033779144499369,-1.752054481858016,3.35161436931174,g
-2.8605828036185565,5.794658840012659,8.220281397307177,13.29916912537385,9.079844536926977,3.710754577108954,-5.171848207877866,6.877178128166284,g
-1.729770417424146,7.556155793335941,9.046611009522746,14.047320364452773,9.909780562606151,4.714762001399385,-8.569894764247772,10.058555121076564,g
-1.0771596894540914,9.142807144722418,9.309845298600841,13.979325669736644,10.175194272516945,6.008485091762804,-11.55056666720459,12.46042383579042,g
-1.0018147210432091,10.516819420329877,8.983145605208097,13.076069913981721,9.862326337324534,7.5547825144958,-13.622017914564912,13.82453145321941,g
-1.5211636429494608,11.662590436288593,8.115362884486837,11.498348831801692,9.031959578607877,9.295892846330863,-14.345313533536128,14.152968340514281,g
-2.5798332984479324,12.505335006831977,6.771084862857345,9.512486752150163,7.746564097795305,11.145248491865754,-13.478829980255213,13.64749318111896,g
-4.037037411979645,12.92156579953666,5.0244793929728,7.379821820242296,6.0608375505325425,12.996730651527532,-11.056202771170103,12.551598594456639,g
-5.656597477995303,12.812542868063328,2.9907334419140454,5.2718857859263455,4.060202523229441,14.723454515867596,-7.385727500393817,11.00183365231381,g
-7.1645937031450275,12.14416718683957,0.8238710251481146,3.2441893208835317,1.8707464665389448,16.17191049987151,-2.8696975199218246,8.984510121132638,g
-8.376335201014928,10.91091718037541,-1.3461592100908315,1.26276777818987,-0.39231678644263435,17.179288412418423,2.3213942490531143,6.411599276349103,g
-9.29838399143043,9.083588351562282,-3.479716419205148,-0.7410717701117585,-2.684974672711493,17.60048112769451,8.350456625906745,3.2430703607886473,g
-10.109193403159889,6.62444165581614,-5.620947973829932,-2.809081638591835,-5.0308438072717685,17.31059416124672,15.303491935841132,-0.431977594971568,g
-11.021779818706738,3.579175070159119,-7.807551835205821,-4.904649511702125,-7.441770859342563,16.203142058298145,22.597672173223764,-4.390200793335843,g
-12.12488755018459,0.17250623550509037,-9.960981661804748,-6.892582326365604,-9.820129412571275,14.235675976447277,28.88544153763276,-8.325749815857812,g
-13.307849908263938,-3.182184469227891,-11.843147809261676,-8.566838034840796,-11.921370687886911,11.505046217402242,32.654239139694866,-11.92176892054699,g
-14.317047949895775,-5.999109806177892,-13.128779200604034,-9.718920438654616,-13.423113587990718,8.265252817030689,33.00914810134706,-14.906515145744326,g
-14.912362180431899,-7.917846131367661,-13.566228509444269,-10.210952677594014,-14.075468144601956,4.852745564870378,30.030851355335102,-17.06867204371393,g
-15.01940002369653,-8.858186036444511,-13.119892054354878,-10.010621590075493,-13.831005053038865,1.5877396955364997,24.562875544525628,-18.234390981052503,g
-14.758296839956467,-9.001902880907092,-11.975839574139941,-9.170351247058342,-12.84471691855386,-1.2717231183863404,17.673295224487557,-18.24306450352682,g
-14.320072100958237,-8.591711149564764,-10.395253606868698,-7.775000950104966,-11.336955896758484,-3.5238997159877017,10.145822875958135,-16.961891853796132,g
-13.801226961146153,-7.70886416400009,-8.542735723629672,-5.909108437115176,-9.4446691602242,-5.007493892760105,2.3289195918163585,-14.344298193267642,g
-13.151702727076986,-6.236497183884571,-6.446985032023389,-3.6779299540661796,-7.202917167818268,-5.597498880251553,-5.556811239805507,-10.501999812907751,g
-12.280507720801722,-4.058968474367856,-4.124007779589138,-1.26225350004092,-4.669573143970235,-5.2231298262973604,-12.995763888998544,-5.75031274792412,g
-11.213618860243374,-1.3266618444002156,-1.7378968255087195,1.0553290306908685,-2.0663280249568605,-3.9168041983794266,-19.148796959009058,-0.5917209797702355,g
-10.16132794848411,1.4563703198339715,0.35526157043956064,2.9368856610050367,0.20251299584472165,-1.8612399027852398,-23.25863110519457,4.377844632840892,g
-9.440794355100508,3.6226905243011176,1.7271546165966742,4.0861485913286675,1.6818553080178886,0.6342933359182334,-24.98013284419463,8.609139433641824,g
-9.313755623273355,4.682345861699475,2.072979414225942,4.3271992779254145,2.0562618167422935,3.238096371587163,-24.28865311343934,11.708519527730541,g
-9.854804396825523,4.560989928534388,1.3404980257901264,3.6184430849485603,1.2674886741241354,5.690784382850321,-21.248220152256714,13.453618601416858,g
-10.939886010830964,3.5585086566631103,-0.2932124726511735,2.020492797311804,-0.51295140338637,7.811051580725739,-16.066219699646517,13.736071734759154,g
-12.35385190864172,2.0736171955629867,-2.5595366045293093,-0.3287912722993692,-3.01517338852369,9.447525565943177,-9.356042871037275,12.51329608514507,g
-13.920252564689282,0.3263695548913338,-5.2245879137853635,-3.210473112212617,-5.988314206921662,10.46393176786302,-2.1855688763330563,9.82224029623447,g
-15.545831220511023,-1.7036313834532884,-8.108609347476197,-6.3261766872236525,-9.218772407206107,10.772162525952156,4.250220509864071,5.829764912339324,g
-17.16781591217368,-4.107901517093755,-11.022602298794897,-9.3490813944445,-12.475984377228475,10.359478317254732,9.112463765209037,0.8570408086622183,g
-18.690504531664885,-6.830332310466263,-13.725014619699024,-12.015443263154399,-15.48154024480518,9.28358112140953,12.268562341029881,-4.658354949755131,g
-19.98574119749195,-9.593440234784012,-15.959118597095614,-14.190995909457405,-17.952422743019028,7.655742740066112,14.285006798676775,-7.309790476273598,g
-20.938065684415175,-12.008997383750955,-17.53263248288812,-15.852705571522264,-19.677070571343116,5.621493396960008,15.928307502114501,-9.377829442636308,g
-21.512137122245644,-14.709749505247931,-18.455824048638924,-17.558421004369063,-20.5795434165609,0.932866721613741,18.003590202843824,-11.346267413151814,g
-21.015975327647578,-14.907893702089956,-17.86507106085238,-17.41609845195637,-19.80731056161218,-1.4292672525467995,16.66767543850947,-11.326318722224078,g
-19.96444209381131,-14.502758441614784,-16.665952212415156,-16.499836453253778,-18.343050870803328,-3.5818883521438623,12.971906883346055,-10.714192688010247,g
-19.96444209381131,-14.502758441614784,-16.665952212415156,-16.499836453253774,-18.343050870803328,-3.5818883521438623,12.971906883346055,-10.714192688010247,g
-18.441220146260314,-13.662512886206958,-14.971040657090224,-14.89133714068385,-16.3484535497265,-5.369261375115865,7.590068603674735,-11.778605150000962,g
-16.63728582739681,-12.518913280187633,-12.939200397124349,-12.813787300478518,-14.030136901973373,-6.712075566504765,1.7905227421054541,-11.713316262604584,g
-14.770588555123876,-11.137435706097735,-10.738731557446624,-10.496034964659348,-11.580678365453593,-7.604164491901784,-3.450111778060863,-10.521515106233512,g
-12.965274031030694,-9.514308840732253,-8.479728381825163,-8.03282928851586,-9.104720189042329,-8.035179854320855,-7.912508504291902,-8.24225869478667,g
-11.208354168820149,-7.625191747924059,-6.193980263424242,-5.38648442857279,-6.613854123371121,-7.938869255102389,-11.922195208598861,-7.904507867537724,g
-9.45776404034881,-5.52991638644732,-3.9171579655657895,-2.5479965680182337,-4.134683772406636,-7.24310819618138,-15.739649398360061,-7.018857830383306,g
-7.825266617870223,-3.464717097495322,-1.8137772556590128,0.283501827709987,-1.8517927178770748,-5.974098083092677,-19.023808938319593,-5.777089540978254,g
-6.645801838235504,-1.8137844774196523,-0.20465114194131936,2.6760364722786503,-0.1308726197058477,-4.313535620693975,-20.82603679712328,-4.432946598563035,g
-6.317722740599015,-0.9295028750394703,0.5751833795378962,4.141468330225243,0.6500102768792757,-2.565977866171874,-20.263289704004425,-3.240911152309112,g
-7.014835494632562,-0.9175931657262332,0.3933454962067704,4.391901854141582,0.3500306775217537,-1.0576451872872024,-17.366432887611822,-2.398856938069941,g
-8.51657270392865,-1.5671228086291973,-0.5740414780639206,3.485729107155725,-0.8135023009511044,-0.00960082662297399,-13.249129459041878,0.22671709365773046,g
-10.31880379898011,-2.5013487946087487,-1.94965104827808,1.7552103279932854,-2.390135712370891,0.5477697226397787,-9.345954451317791,1.7658772542744632,g
-11.94678152738994,-3.439456082194043,-3.3973508953273437,-0.4241145129893386,-3.9816233711315645,0.7452447365489994,-6.461507842857122,2.1687717242565263,g
-13.216109613246132,-4.358990951596821,-4.806011779551221,-2.8369980290779493,-5.464854843081831,0.7390019118600916,-4.516156289303603,1.4138980259180483,g
-14.231739632860926,-5.423818057602525,-6.264630663898542,-5.444998104756613,-6.971228599470396,0.5912315388878943,-3.0273183013940734,-0.45230588966180196,g
-15.138273611002173,-6.735829732647666,-7.848793940231931,-8.219937351108872,-8.635675491572744,0.2758499963570779,-1.673208566820773,-3.237796147429523,g
-15.84893475175114,-8.124665941554412,-9.403141020208725,-10.960202308530588,-10.32712583923339,-0.22692033582967888,-0.47510790461067326,-6.591801559829902,g
-16.00251536240165,-9.169783138591376,-10.520516056712875,-13.2675970641237,-11.602761939402495,-0.8690702473279248,0.342991706855795,-10.109254656206923,g
-15.200904840557069,-9.454642256903247,-10.755360419309834,-14.71803721631876,-11.944955974641974,-1.555613225567959,0.5995061186036164,-13.490158283387876,g
-13.331236527567635,-8.848733271614064,-9.903461143428128,-15.095158357882099,-11.094787808051851,-2.1967002309528687,0.3647785105991936,-16.63602327241247,g
-10.699818962437645,-7.587657894815088,-8.122481231382753,-14.508108271944703,-9.213578069862482,-2.7432510787836426,-0.019761510274346427,-19.616197225047536,g
-7.868818184902048,-6.09669031515306,-5.808635416522731,-13.305920220544191,-6.756006860583885,-3.2051860869350364,-0.19630705228248227,-19.581938460065906,g
-5.333620551596925,-4.71120196740507,-3.3446080565979095,-11.851644613306522,-4.174857747342327,-3.6460194177763356,-0.10510237178770669,-19.073492624172392,g
-3.285579888897414,-3.505961168048411,-0.913706714258843,-10.320696109849269,-1.6882850016879132,-4.134897551152842,-0.02865750676416603,-18.061140740202383,g
-1.6034065467294123,-2.3304416422638,1.5091236008975715,-8.664431266335807,0.7437635331017148,-4.682897863673704,-0.3616259180399865,-16.548572795193643,g
-0.03057776305605948,-0.9820037345866716,4.027284162031219,-6.744325059553191,3.265345529560193,-5.226095736462207,-1.4005372627051942,-14.614182717889644,g
1.6155161920660248,0.6336973750533053,6.679376206025405,-4.505871094553845,5.944592138975231,-5.664418258564842,-3.2840929405966044,-14.699514272126928,g
3.339317239466508,2.46236748070893,9.386501225622645,-2.0473667643097793,8.704205206537296,-5.898309141614095,-5.944975780282775,-13.945451524414699,g
5.002713419377021,4.371945070050192,11.998644966654066,0.4461623920244236,11.379279036302037,-5.832956924311394,-9.037212838362688,-12.46631616598089,g
6.431959441449159,6.237759763925253,14.366505630918429,2.811122279127502,13.808489811883561,-5.387480104489881,-12.016284948243356,-10.27354803899033,g
7.497209391223544,7.959778446820434,16.36607588193664,4.949722946969162,15.86287400710926,-4.532652610127435,-14.397557354433207,-7.286242967074967,g
8.128032347456314,9.426365212377924,17.879252142245186,6.793066636342114,17.41521432687886,-3.3150498174709115,-15.935572008246305,-6.405923315705019,g
8.306518927291254,10.506811798560484,18.79357690793803,8.25000944939563,18.332279938396947,-1.8307083179171557,-16.573528607782645,-5.196683209091104,g
8.075385374530923,11.10979036379268,19.051357902479307,9.208572972705666,18.53360676780369,-0.18026245340871264,-16.339117627493227,-3.828057040961874,g
7.530011603448135,11.243253696438533,18.695573491806385,9.588333317594408,18.056552663771193,1.548718403524872,-15.350883114163878,-2.468974864213675,g
6.753847289008499,10.992610078798034,17.84483796311477,9.386108983226194,17.040524415965674,3.28149058340299,-13.821935759903235,-1.2568016759476752,g
5.7434124651920815,10.43307865741006,16.613193986109238,8.669940619802485,15.635313910118239,4.965166705558589,-11.943703073389779,2.0010241923126673,g
4.425579253135012,9.581018857063652,15.065865962061816,7.538368982752013,13.932755880794303,6.571609387207573,-9.786727750486211,4.221708447053233,g
2.789668391292053,8.447843881658297,13.268871823755441,6.102483045768629,11.999781897899293,8.07126914695099,-7.353724986726671,5.408791043557034,g
1.0222740118039693,7.138673216601765,11.386207978134363,4.518814012886331,9.98120614870442,9.406289959711618,-4.649398068077689,5.631644277087679,g
-0.49462383028245804,5.882929126895119,9.719893707767312,3.030275099335367,8.162365747610732,10.50255027533225,-1.6176705553324258,5.004691407877082,g
-1.3508925014174307,4.950077101333086,8.629226389930311,1.940715123564879,6.906802478032825,11.299603636884221,1.9059155082575963,3.6915879881843052,g
-0.5547340023021154,4.531616175102537,8.910507742807896,1.7789316775449024,6.914670502258323,11.793288660767198,10.588644496726085,-0.18838418071433835,g
0.6176450320807888,4.821540054562595,9.996760447731546,2.6058677259800667,7.925848707116811,11.365323566438036,15.116572505718528,-2.376043004950939,g
1.7746079503941736,5.133803144612204,11.219435712068435,3.6608151269292817,9.110065625267456,10.431738550606672,19.050902704588896,-4.522553177597576,g
1.7746079503941736,5.133803144612203,11.219435712068435,3.6608151269292817,9.110065625267456,10.431738550606672,19.050902704588896,-4.522553177597575,g
2.6699165666056803,5.306453332270059,12.244951552448763,4.615731401513311,10.116948118987,9.015090421198641,21.84381664447143,-6.490698413620423,g
3.2512946416458126,5.28885916619023,12.90079595758959,5.243638367149927,10.757102849188417,7.189793828792878,23.003087201891642,-8.138944220065632,g
3.5242794592445166,5.065166899787733,13.118133895501064,5.423099691605525,10.952051820968268,5.078383288566135,22.231763862230814,-9.33327227420581,g
3.4141905911051005,4.581873908388093,12.821417546535576,5.077327581310276,10.62970928547524,2.8559091218601367,19.617114422271197,-9.98251021851415,g
2.777982862110183,3.780827879047682,11.901087339841837,4.142854230503743,9.698883519535745,0.7297157982717796,15.59062685583692,-10.061816238124363,g
1.5415912083360257,2.7021290874298844,10.297153772977936,2.6138101937715206,8.126400625345811,-1.110248887799122,10.645994382437715,-9.594038960585118,g
-0.19584344770970663,1.5194307406538177,8.093999878700254,0.6033638581775425,6.018523520289631,-2.527827255632129,5.149707373123404,-8.613262394915576,g
-2.1980278635928903,0.4351661701296665,5.5171820736584944,-1.6726602137920445,3.6059181765455364,-3.442640933154678,-0.5847884381253046,-7.170725531189953,g
-4.220086414316658,-0.4772323481295905,2.8271417306928703,-4.002048279745177,1.1353318375609227,-3.826247108901093,-6.1778866950042675,-5.394852965501235,g
-6.1030530382261245,-1.3272012789228897,0.20611555591889186,-6.276789201102505,-1.2355848247411905,-3.7065777091450256,-11.207270810664921,-3.5351136380071906,g
-7.764244303009489,-2.2940309491682993,-2.261061750123645,-8.488623992048543,-3.4472687640793227,-3.152393776862481,-15.25036045454048,-1.9165912282131594,g
-9.11972189550325,-3.4411717351790854,-4.500699028641031,-10.623853511793842,-5.447354847686691,-2.2348148716079757,-17.843389654694903,-0.8203907626465352,g
-10.031246617017485,-4.622970782466419,-6.349622952218889,-12.557842495958463,-7.092053975587698,-1.0178563046952234,-18.536953341757787,-0.37721918261154697,g
-10.341920545280638,-5.571651799676692,-7.554057390350782,-14.048486966591867,-8.14755637048312,0.39987081354035625,-17.164809676083078,-0.5435184895995155,g
-9.976768260555504,-6.092138422066491,-7.893152923498792,-14.845116127735333,-8.40981391115524,1.8554023964309099,-14.061000269676223,-1.1619213682824305,g
-9.009754973030402,-6.1916343481781855,-7.327692590284538,-14.837049630536123,-7.843717527049305,3.1647443735777516,-9.924373528240299,-2.0585487007813894,g
-7.619717743419926,-6.030155853419472,-6.0390202380238005,-14.126833440060455,-6.615734991463384,4.201865092114785,-5.455514913729947,-3.1130889710858822,g
-5.970048358549427,-5.746517301942042,-4.318178624069607,-12.959352050134441,-4.988642001023905,4.930279490117373,-1.1252320214923899,-4.2510685220978655,g
-4.131573538237812,-5.326122279049935,-2.3971171812474266,-11.550508936425501,-3.1676599555519696,5.37216230114044,2.822714427512338,-5.363948018003269,g
-2.123162784382442,-4.627032355596625,-0.3577022138674174,-9.95098570038345,-1.2206522531375124,5.565831494253252,6.2859710681230805,-6.235127996904017,g
-0.01933746686945508,-3.531848636647304,1.8190040028539212,-8.058840264189493,0.8751755369738718,5.542842065972705,9.201851761867498,-6.559557231215903,g
1.990906039059767,-2.0903526367140066,4.116531215699167,-5.768686825652031,3.108921738702682,5.319804483600963,11.412342523758898,-6.063744900172329,g
3.6541414770711027,-0.537838141659291,6.3773608391999455,-3.133531822561232,5.337187726700356,4.909408046644547,12.622383192680148,-4.645358075647846,g
4.7667058101486095,0.8204885992004215,8.314464355688234,-0.41791636460733717,7.289258271558886,4.35455481231992,12.58839041208512,-2.4457950658510015,g
5.25524649479077,1.7666373959368904,9.628981023945073,1.9847567393319807,8.672189184824258,3.746392025755683,11.369551468171446,0.17621563891086378,g
5.158091060317611,2.250205283980679,10.139315784838379,3.7083306182232407,9.295311054837343,3.1843708778002573,9.328768395656969,2.7593516084130734,g
4.525830125058121,2.3413020488078877,9.828081161913046,4.551397537575805,9.126066398887115,2.7137503134798346,6.887744064422352,4.906915886357754,g
3.3325030021117272,2.112045802524288,8.791785241914706,4.523393263828631,8.252117797739041,2.320441786793191,4.347968339101671,6.430363143210293,g
1.4900566216619882,1.5560789626542648,7.154001389423047,3.776049873907199,6.79546676244527,1.9890015238642917,1.927473116077207,7.373076901172422,g
-1.027212942784569,0.6100126550621487,5.011155245681627,2.4683878426914077,4.84501612938341,1.7411653159204874,-0.14422084560382195,7.8874078711067215,g
-4.049178624800239,-0.7538000275513126,2.434963615086697,0.6682561667854147,2.44632905034931,1.6041298187950694,-1.6109860404109568,8.061902133562787,g
-7.1939317766001665,-2.448026759256609,-0.48743280174368486,-1.6284381689252598,-0.352844421331028,1.5561096057052004,-2.223134679935085,7.84327034841498,g
-10.004876669230589,-4.2694082141306975,-3.6098005741716492,-4.3799733601810455,-3.435086055743683,1.5157544369230505,-1.8116969097744875,7.108050890000575,g
-12.148334899972433,-5.980653294787373,-6.710999943659391,-7.3923728833038265,-6.5752833846313665,1.3772366056512186,-0.4326364292339656,5.804611084532925,g
-13.526875298527775,-7.422087875457393,-9.52245781183195,-10.325237727016944,-9.469072821298315,1.055204734025898,1.5687064857008708,4.036995596709092,g
-14.226042083179575,-8.569781289750784,-11.784061290331383,-12.812169617405587,-11.814205291901517,0.5199510213545508,3.766986443121547,2.025617228197677,g
-14.338476841111065,-9.483396541865908,-13.292178832208918,-14.604214209821915,-13.38757258199073,-0.19159893079369353,5.968490282425181,-0.015251285890812927,g
-13.810314952755212,-10.17930120831262,-13.91936387774626,-15.632550206279404,-14.073759406324092,-1.0095328267271764,8.19858791251471,-1.9788385577825154,g
-12.449860004329357,-10.549881111203188,-13.619275172073216,-15.954324915708014,-13.853142220065894,-1.8908203521625637,10.32938678362048,-3.8606909993965375,g
-10.109334250875111,-10.420447956522464,-12.433436267130098,-15.635921417263152,-12.781472809215234,-2.8378085443378733,11.854058853916362,-5.653977033106577,g
-6.890574050372488,-9.69720186442002,-10.488552899234183,-14.675959899246328,-10.97061853276421,-3.8444279383856417,12.161448217500736,-7.246491256666987,g
-3.1883832790196505,-8.46133706568158,-7.9667166083623275,-13.036004308225415,-8.562726799190296,-4.8346093273378505,11.003757065909268,-8.422637846984408,g
3.716966974836363,-5.242384179157188,-1.9509901924251867,-7.989294603670658,-2.544987006640294,-6.224400922364079,5.49159367505924,-8.776321095822073,g
6.406005264366689,-3.4796668120305214,1.2029727228139009,-5.040959310734141,0.7610232672452651,-6.410358704495006,1.9258734432202762,-7.8473584562247805,g
8.64727944033051,-1.5660706612087938,4.245669977186154,-2.163046459456687,4.034472913983109,-6.192898126786026,-1.9519019759326255,-6.227861552664508,g
8.64727944033051,-1.5660706612087936,4.245669977186154,-2.1630464594566874,4.03447291398311,-6.192898126786027,-1.9519019759326255,-6.227861552664508,g
10.582726703345118,0.5114320966517379,7.0208826466377205,0.4982170030479406,7.074264166318447,-5.569808162414688,-6.016712828262828,-3.966475002494569,g
12.22057273562299,2.5752195741100117,9.367817518208371,2.8891276273471314,9.666688115376832,-4.581698638914718,-9.79716281674718,-1.1599858893529773,g
13.396317055140795,4.282901684679651,11.136536775659437,4.947028009796284,11.619435303913818,-3.3187263115939047,-12.390387499218487,1.9631076053379133,g
13.882706850746862,5.330029033905715,12.225291438684575,6.524403867479158,12.815791375394067,-1.9095823944012102,-12.923495442263157,5.0204087581509205,g
13.538499052287392,5.6509952802551435,12.60615936843287,7.411157011300929,13.242656764672148,-0.5041453349731975,-11.284979824873922,7.566054176725233,g
12.3661273274814,5.41649450064736,12.29953576700499,7.433993776851034,12.94709252510805,0.7459814438896659,-8.329432778309643,9.248466344551924,g
10.460721403995352,4.8235439281160195,11.31518668556939,6.546025050813685,11.951408179002735,1.7147385854302102,-5.154149897305073,9.927208295990608,g
7.9491746427739,3.8874198288797914,9.629312029344998,4.834071250071455,10.218758407430123,2.316030479366531,-2.125745680786152,9.664896696576996,g
4.999289346460121,2.4412544725691148,7.235479695364573,2.449398887152286,7.71816203762248,2.478953039963451,1.2594734708715538,8.610544429661546,g
1.8606211525831184,0.3402634377815025,4.225457993628102,-0.4623370207683708,4.532919745066313,2.1165730058924384,5.506176438369765,6.882052203337577,g
-1.1566686544693168,-2.3235640938396065,0.8245066250528772,-3.7623311072187526,0.9125293708158247,1.1564493853803426,10.202353689514435,4.546018083187349,g
-3.7807625400075424,-5.188326428335106,-2.6457605438698732,-7.257349085624655,-2.774120681105219,-0.3733418401384026,14.018985116968716,1.6918734938594562,g
-5.866078579604828,-7.7950283736661445,-5.842414912095694,-10.649198596391527,-6.142753398807345,-2.3013973592707453,15.597233967216074,-1.4867275766210304,g
-7.380673793696401,-9.819686053119801,-8.466736994418564,-13.561930757459148,-8.883348890536272,-4.376060853850496,14.501607579392209,-4.681070370038957,g
-8.30362705853511,-11.182331802308198,-10.299011462577916,-15.648157072329909,-10.79338324425386,-6.373911059824456,11.481133959304348,-7.537307945399382,g
-8.533356929549365,-11.967224096031721,-11.207981870739363,-16.71137358871451,-11.762268646189348,-8.154633167982837,7.87397420588964,-9.762875522795841,g
-7.905405725534571,-12.25211765854951,-11.151618799098413,-16.76290122174551,-11.748184030138582,-9.643030145024898,4.6119571650467135,-11.205424256852517,g
-6.329042336770583,-12.011945427947534,-10.182802403452284,-15.972463309511417,-10.784039462499505,-10.785824740951309,1.6228737552027521,-11.852680027858021,g
-3.9442067559069782,-11.175961883155408,-8.456402624154434,-14.550037424863111,-9.007782804938644,-11.518975780119847,-1.825793567129114,-11.754637710383351,g
-1.1591806178158122,-9.763684391137883,-6.2156415616726175,-12.65323776214968,-6.6715566540596445,-11.759891452541229,-6.154502155123218,-10.937549643945848,g
1.4941436517854654,-7.955053657436625,-3.7420685158659497,-10.38804424666018,-4.09211431015773,-11.440945348005068,-10.85895745433772,-9.38876370428998,g
3.6024713241492323,-6.025619713299327,-1.2871547369257583,-7.877351053579107,-1.5592725528215339,-10.56969507689205,-14.872402313038346,-7.118273821141616,g
5.038359165337853,-4.208950069064345,0.974288341811446,-5.307686676589251,0.738659852293021,-9.248578142683503,-17.436919738309488,-4.227978239064799,g
5.941538125432542,-2.6035766406355356,2.9471908431686664,-2.8974890412558167,2.727511596977063,-7.614958693915327,-18.53304170524999,-0.9264234272749684,g
6.552055583292275,-1.1876484636529416,4.588852163236187,-0.8180562474053822,4.400991330365243,-5.766701059138244,-18.557859373322067,2.510299316574991,g
7.028242728822235,0.08648474538632174,5.875141366729801,0.8559935654069459,5.752829801242616,-3.765553594485243,-17.783117508774282,5.793606301809938,g
7.363202931444692,1.1976718489134934,6.775002886461512,2.124665588018901,6.731148635997082,-1.7029140921399908,-16.17235377701467,8.664979923201091,g
7.432619499338377,2.0338712150922182,7.24589225275979,2.9966046305018432,7.24800747946235,0.27428812656302204,-13.591821317695539,10.916422013680068,g
7.13101683804585,2.461121353912312,7.26275011755524,3.4462674057416236,7.246829392665154,2.017495372476578,-10.101561247181127,12.391744678340853,g
6.505305631729866,2.4322804115271905,6.8700788853837835,3.440557027937298,6.783341203221589,3.4406998066094636,-6.069664169266533,12.98749775680533,g
5.7889342015983445,2.0495130867472433,6.21314194648628,3.0151723844221108,6.049518337487241,4.526505566547031,-2.024075989521797,12.675113217934662,g
5.298318621380206,1.5282485109628063,5.503880261936276,2.3208540228881747,5.302162996195343,5.286890021186604,1.662471205931147,11.53333195321597,g
5.2509974278267055,1.0831565459819328,4.922057852044371,1.5677678812926283,4.728963393768278,5.722869184198186,4.969533557092843,9.745206740619192,g
5.628615480762759,0.8084675056420378,4.50857644115956,0.8874820045288392,4.338247984719542,5.801734054949985,8.072739318604622,7.535307130544913,g
6.186196101453928,0.6306690167064216,4.134550238574166,0.23123749768728796,3.9583013119483725,5.466028701569253,10.982754717967456,5.088656894550776,g
6.615153482317972,0.377367900801008,3.5977091359782944,-0.5815754840240468,3.372651161254292,4.691490097254591,13.38796783927288,2.521395757183341,g
6.756624851154636,-0.0659994613930869,2.803484459338964,-1.6806628267451358,2.516236560247264,3.560287753318792,14.850660775483433,-0.07616711193044043,g
6.70776797143189,-0.622670263885143,1.8922999975478638,-2.978892123475488,1.5801686461898203,2.266062247946558,15.091309307270484,-2.572905809606127,g
6.728377687644641,-1.0369277011963267,1.1847972556562827,-4.173952357735601,0.9149907409854056,1.0230596081025054,14.098983492014813,-4.771178388795998,g
7.016186839262305,-1.04421751773911,0.9633827393938279,-4.927672289059062,0.788138833851702,-0.0362897281687065,12.1008305698846,-6.446749223021852,g
7.540505035043674,-0.5636706858113295,1.264557618904599,-5.084530265235129,1.1933812492386207,-0.8785032574349735,9.49754900858441,-7.429991597945866,g
8.074667795308962,0.24948579947105384,1.8574159399374572,-4.76194951643181,1.8728422376796867,-1.507433658771868,6.740879148423977,-7.67607580392869,g
8.402334420074684,1.8620396257366558,2.77778027375961,-3.788892069405663,3.0139972284785315,-2.0157779817141313,1.9563724488916308,-6.38433235429446,g
8.238820002957478,2.4229548608388223,2.9874243208203715,-3.4248516747089837,3.435930727936847,-1.7894250884628327,0.1842694956516341,-5.144714673080682,g
8.0717966815016,2.9088504712294028,3.2794918773086366,-2.988853159216494,3.995280692287003,-1.2217328327710604,-1.1271984002925552,-3.6154805168560586,g
8.071796681501597,2.9088504712294028,3.2794918773086366,-2.988853159216494,3.995280692287003,-1.2217328327710604,-1.1271984002925557,-3.6154805168560586,g
8.010054682691493,3.4507725922326835,3.8654283750751723,-2.2476554279610426,4.832212097438567,-0.3956097727552952,-2.1072069803146847,-1.7885216022038506,g
8.04762747261265,4.122139275454986,4.793733942350203,-1.0687328057881884,5.922493551861251,0.5470484369671562,-2.9749343927179828,0.3552341068334002,g
8.113305515730907,4.923465093086269,5.93554254321368,0.4960666382201137,7.114286707090936,1.496137056039084,-3.7228659158741984,2.777897238206594,g
8.149058907427118,5.821798116030302,7.084237122382001,2.2352616775789476,8.242365486604895,2.439567977601719,-3.8814334769708614,5.337240224080135,g
8.143604313804286,6.778051282371889,8.067029400274855,3.8681126645507633,9.205080062232222,3.416358415129865,-2.742708372246031,7.788306855040337,g
8.10519028311251,7.723210772206215,8.78481215690529,5.145987064157755,9.94727479695825,4.393030161921942,0.09176717242483523,9.848360898244241,g
8.025279660723317,8.524516999086007,9.190176040796958,5.927286144879153,10.40407953484763,5.197393056732127,4.32667887347072,11.295919080425803,g
7.890485770463869,9.013723848285348,9.269491412552242,6.203443192847429,10.498228867855559,5.584306834973789,9.035743970155846,12.037944878690073,g
7.730109965395249,9.07632360394371,9.052342258959651,6.066798107505703,10.201662793902079,5.372894062407908,13.10520189859667,12.09996166121078,g
7.624619746350149,8.71007708017541,8.604017875151317,5.633607788724207,9.57593131874329,4.542409326402381,15.842914866611617,11.55583095465652,g
7.637145349847276,7.980616386012713,7.969553657414474,4.962215335842847,8.722425625734163,3.22462749586444,17.41123224066593,10.45357546179616,g
7.731076797684236,6.91924308629733,7.11577946651168,4.017910001974977,7.68403673400842,1.6015904415036295,18.643191613999406,8.78531317430878,g
7.7710152959388,5.479253841467175,5.94804593955231,2.7140487792638646,6.406535511521332,-0.22497537779808702,20.17376361968187,6.518504624368686,g
7.62186515744379,3.607031419357328,4.412057017582784,1.0075500953615397,4.813528635226513,-2.2868227526690235,21.584139703562098,3.67138349860801,g
7.26216774834676,1.3665727766682076,2.6042713214769693,-1.017721035538481,2.9392742427336813,-4.65714599567812,21.47403282587809,0.38124464803469904,g
6.820711807885419,-0.9965674580792422,0.796815578486233,-3.141354586789193,1.007586591323467,-7.281906342337058,18.530647521132327,-3.09270934962037,g
6.514621941475605,-3.1182575725493074,-0.6585373392366007,-5.077200672792102,-0.6197992507501444,-9.903204661791966,12.6370990889978,-6.441099197631654,g
6.53229445135848,-4.674195508254496,-1.4974177670895001,-6.5744006310978635,-1.6086488836729225,-12.162454429352845,5.045170185978617,-9.391095078018962,g
6.930933485664324,-5.524661844118516,-1.6704592306303634,-7.486881846013155,-1.8233462028148844,-13.786692819905753,-2.4471380112106162,-11.740004400798892,g
7.609650622129584,-5.73873101687435,-1.3336202647807294,-7.782855646702096,-1.3768270068537098,-14.693159140235375,-8.582557878546078,-13.332704272606065,g
8.370639120310464,-5.488479350431888,-0.7064824980430386,-7.50895669173679,-0.5231707961063987,-14.954720006742898,-13.207385669990774,-14.038714766947763,g
9.012716349874292,-4.920107393183597,0.07723961974437124,-6.746320619595901,0.5086811383532537,-14.69522613615732,-16.969629683302013,-13.771166587441249,g
9.381737943106158,-4.120635859795774,0.9945340544463448,-5.5888184181571114,1.597748709162085,-14.0053663388483,-20.417391386884077,-12.533131175402623,g
9.362747945546083,-3.183345498969372,2.028149257243842,-4.145573504989086,2.68465631274672,-12.925522771162482,-23.269719648261884,-10.445736294446199,g
8.86678639508813,-2.2645914298675325,3.0555249727096063,-2.5454894719877936,3.678401262907355,-11.496288608336375,-24.585589730808373,-7.727966787705043,g
7.855283422437841,-1.5472861101124493,3.848694879609873,-0.9252063073820281,4.422889821675639,-9.825403305619533,-23.73341934181257,-4.634096596627188,g
6.380727093646481,-1.1411009444105056,4.18502878220626,0.5924856318645514,4.750393681268145,-8.086621473273834,-21.18725630144683,-1.386423553597788,g
4.593968115804584,-1.0149842767700041,3.97308009347429,1.9087458554055927,4.568935858161177,-6.424901550594053,-18.300539507774225,1.84872921061646,g
2.6999716219331646,-1.0217897630070554,3.2963233062782273,2.9400959896288237,3.9124132471286037,-4.86203138995031,-16.267033029688108,4.922840339483851,g
0.8843110038290858,-1.002484901264704,2.3429508581689698,3.6051602579624435,2.9131728675193664,-3.320749972064488,-15.250885753491854,7.644159625052053,g
-0.7477273736865901,-0.906565889916801,1.273175197665069,3.8263958429630707,1.7141179289059418,-1.757501020946568,-14.379740187980357,9.765079590877226,g
-2.1736300373145907,-0.8447479975407532,0.13153656766976374,3.5567979513935306,0.39495571147216246,-0.2704205171591626,-12.48071734116797,11.05042232333599,g
-3.381115735828092,-1.0200290968389791,-1.116752636463482,2.8228219221844326,-1.0153607017069883,0.9188073163808838,-8.961219157723878,11.38102778222436,g
-4.278260616518024,-1.5780158343554382,-2.4650665302826433,1.749862590753145,-2.4583994829775726,1.5836632285284609,-4.244253542663005,10.80769163665855,g
-4.693325197432088,-2.5023100333162542,-3.796782828632954,0.5271871965100682,-3.8048506735411856,1.6158272774440339,0.5615885389366687,9.5065743368236,g
-4.5046887100927115,-3.6462072829010403,-4.955214359997604,-0.6918652088963179,-4.922826544014411,1.0719812919631158,4.5588350751217295,7.66374785788628,g
-3.799007303139527,-4.85672463245592,-5.881034987536455,-1.8854742306166323,-5.79220432801501,0.10982672794572457,7.754865352972604,5.373996691303065,g
-2.897245861862948,-6.0623051138673265,-6.6634191324597065,-3.157142904460044,-6.5311569927695645,-1.152284086421147,10.829777568497693,2.6369975033684043,g
-2.193456387715974,-7.251197381666221,-7.440401993674608,-4.604152026028702,-7.285095119917105,-2.734184096511028,14.158268734851282,-0.5363645966644114,g
-1.916153218598917,-8.384724872412203,-8.240870460486336,-6.160754028004621,-8.071034057284809,-4.735768222061054,17.102529308463048,-3.9939860268844454,g
-1.9890633738480274,-9.341793033025152,-8.91848030033185,-7.5626927251095095,-8.720535253531342,-7.154409454709198,18.324957391110903,-7.414478443905776,g
-2.0912180243798963,-9.948813820393992,-9.242031099379787,-8.486067005325202,-8.981668383486358,-9.759117703721216,16.805455693397665,-10.425231106226127,g
-1.1575531610116019,-9.69384546697552,-8.448479775721285,-8.468384596374738,-7.963588209136508,-14.003240123613114,6.9676331684600425,-14.396681737155342,g
-0.027930724476372328,-8.923327255520496,-7.57910783920191,-7.883550157818798,-6.996469628930174,-15.156565760800223,1.3311003680325677,-15.368728443786257,g
1.3126693261445883,-7.91901057782823,-6.632737894888235,-7.243335123279179,-6.02481883134526,-15.716039805103454,-3.3129165200749298,-15.756598705238314,g
1.3126693261445883,-7.91901057782823,-6.632737894888235,-7.243335123279179,-6.024818831345261,-15.716039805103454,-3.312916520074931,-15.756598705238313,g
2.7066753054013217,-6.813711576493981,-5.628743777093516,-6.598056019715306,-5.092963416122441,-15.907121829293946,-6.987406039163209,-15.546912619134583,g
4.1245187564844406,-5.6947094444502016,-4.458969236600462,-5.819905357216308,-4.078533954672279,-15.91992475448232,-10.33523548026897,-14.66313904021369,g
5.592155977502508,-4.642845213386458,-3.043839189109241,-4.769415753574924,-2.854633075657163,-15.791442967559586,-13.747716164403936,-13.05140073034956,g
7.05912200243954,-3.766310218804653,-1.4714242064386927,-3.4728297334373943,-1.4526211304435788,-15.42185359294562,-16.836147926185575,-10.764643083193096,g
8.346642303342943,-3.1761641675375563,0.00853033710137865,-2.158733984200766,-0.08274607440521997,-14.71782389699869,-18.78800862144023,-7.981721186639914,g
9.22814923788643,-2.9176185077399177,1.131886445278399,-1.123216110817809,0.9989282907002062,-13.727783941948687,-19.204494602029726,-4.946918860698302,g
9.570438751610553,-2.9212211893954585,1.7873939722907566,-0.5389541486036722,1.6634054683832205,-12.633537969960868,-18.535801666966933,-1.8860426855130683,g
9.413669815484688,-3.0255509234014655,2.073674985934867,-0.36514344549287986,1.985622657980254,-11.616410678854894,-17.744285801100574,1.0243958877671187,g
8.923501835166192,-3.0645416970325163,2.2084395418577873,-0.418279898243237,2.1719112351491345,-10.73864859001482,-17.602338236220604,3.625413459412183,g
8.258846880953637,-2.958865878194725,2.3659950788889073,-0.5271323494178652,2.400461677371164,-9.934336238267495,-18.21087054474743,5.745831185894366,g
7.4750739262567265,-2.746278379362597,2.5653693105199196,-0.6446640776056599,2.697828090390515,-9.086176122610246,-18.985280931262864,7.220885406620054,g
6.553511377267324,-2.5362812312164964,2.6802626519925266,-0.8495138938533747,2.9352733585871116,-8.123873652972586,-19.035653984706922,7.929304240510699,g
5.527736632998238,-2.43412210160985,2.5461291816887255,-1.2610155633277529,2.931121096932091,-7.099466371872576,-17.70137293465511,7.802471237245731,g
4.576052914115145,-2.489787332357086,2.082341362240424,-1.938220987604112,2.578554953137101,-6.195336023656854,-14.898292960722017,6.816793267763937,g
3.972475287277713,-2.687559214289934,1.3581780552816078,-2.82575318633607,1.923157497129229,-5.636178424279714,-11.052187339856365,5.009299499943478,g
3.917302335391715,-2.9583350902227417,0.5736772995814148,-3.773597988836351,1.1550365626835073,-5.558217861284274,-6.771788351244733,2.511669599998823,g
4.381062333309286,-3.203925104838909,-0.03394566252902722,-4.612683317058869,0.5190739738761663,-5.94766696950142,-2.6271919786714437,-0.44318752993840427,g
5.095733153473051,-3.3346511534112,-0.30867679266283843,-5.231688567705001,0.18891843163839916,-6.6901204753815575,0.8621900424950368,-3.5627128432344946,g
5.7198923829914055,-3.3036620950144417,-0.241280879134201,-5.601366455302652,0.1875792055461484,-7.654843621095762,3.2527393923172725,-6.558533723371343,g
6.068764158966248,-3.105534153953961,0.06967541652144289,-5.737400822260564,0.4179336296952588,-8.732376205447784,4.323008522149856,-9.198589878867859,g
6.234973273385782,-2.7361966102243884,0.529419516910561,-5.642518163695137,0.7772776925769781,-9.832641869893386,4.13848949118994,-11.329245142555672,g
6.497181272012979,-2.156701336997712,1.1343353313921436,-5.277665104281404,1.2538221904044744,-10.883224371516622,2.8907160167825423,-12.857606607497939,g
7.08465530610829,-1.301849001856581,1.9632381116644482,-4.581296387639225,1.9239873970744288,-11.820766183503252,0.699839762219725,-13.703576219755837,g
7.990099729956485,-0.12775686190458807,3.0864129750260867,-3.5208500473220274,2.861155640258659,-12.55976732296887,-2.3912447038990168,-13.768242729201054,g
8.977413547500051,1.3398272524434305,4.465737753038214,-2.1424149537427684,4.033614397392621,-12.974781085548088,-6.294170564786534,-12.965769407998474,g
9.757287461872503,2.9848537768947123,5.915130067270502,-0.5825349798752666,5.266392275440537,-12.934854323767587,-10.795929809325916,-11.299913322247344,g
10.170890608188055,4.615042346583606,7.150109307394753,0.976418064283159,6.295479482809672,-12.360097430305666,-15.516777736847086,-8.905023541540704,g
10.244131513098207,6.010325413619148,7.907312643892685,2.38757909319527,6.88826465219563,-11.24425669988964,-19.865549848533405,-5.998199452818103,g
10.104812750590728,6.996716562525212,8.070952955554919,3.605920564727537,6.960348106185693,-9.64388098570593,-23.140448867413145,-2.7759635887706002,g
9.860756190064675,7.513981152781151,7.728034156971129,4.695867556346936,6.613980136719334,-7.666534811093287,-24.869076502426765,0.6627668215873225,g
9.541558439738996,7.633325467356362,7.1148343152584435,5.777751259624889,6.075657642492816,-5.448351050773769,-25.11124889289929,4.312009986038783,g
9.133334537658559,7.5070647132869865,6.492902995867699,6.947069719465896,5.583272474759269,-3.097111633673155,-24.352999076437918,8.17581110820252,g
8.655159801253344,7.279070448556595,6.037803842560674,8.211947657766837,5.297976174181357,-0.6426293710335377,-23.05567229613033,12.160968048040685,g
8.196574143518337,7.0107631432189335,5.800508895778295,9.484832719544427,5.27565078726391,1.933730856996906,-21.301126843923264,16.02349029242434,g
7.877263299436029,6.667344028136803,5.742182898148225,10.634771157813153,5.483432410551271,4.603870203281758,-18.801296812557894,19.42022464768008,g
7.767720814358677,6.1767429887411165,5.802319819587073,11.562329869051142,5.837047286378025,7.231913926328412,-15.170027652612223,22.037778013973206,g
7.847599013989656,5.5297521070753,5.953087398728757,12.23658458647456,6.246520141786087,9.607533714393952,-10.26925974876877,23.705222875309325,g
8.034276060703263,4.847843186076686,6.206136735580854,12.66613659209056,6.6538689250145335,11.53394939920339,-4.478052167509717,24.416773605142573,g
8.23937601748166,4.347183157917873,6.569135233314147,12.838718768684197,7.038805910576249,12.90375331010055,1.3584588122589385,24.271173453226524,g
8.395073667940068,4.2030510278484865,6.992596417431839,12.692477014407146,7.390482411821935,13.730594082751788,6.441464074284731,23.385727715065578,g
8.44606217412129,4.416764622529961,7.365996345430216,12.150716616059956,7.679053789190294,14.118953199607507,10.621529828434914,21.832662781135387,g
8.3487476660693,4.804516791447172,7.582141777620552,11.197257786200222,7.8618096204909165,14.168493573755365,14.428250644875225,19.620620935569825,g
7.783308770272592,5.289319847870177,7.587664338607588,8.601790549403578,7.905078756835323,13.13743601116625,22.389381474980063,13.211066997601112,g
7.558821951597639,5.382053562425975,7.663157737119546,7.464902350322008,7.934822131788572,11.872643122727231,25.523867726402607,9.23211078471866,g
7.628197299289629,5.646744643237359,8.024413216034485,6.742138814553032,8.177937382241156,10.151564488247868,26.792673853023768,5.1207049132113465,g
7.628197299289629,5.64674464323736,8.024413216034484,6.742138814553032,8.177937382241156,10.151564488247868,26.792673853023768,5.120704913211346,g
8.132203429495062,6.273042458347822,8.76199513054768,6.509103353768704,8.779725329885666,8.211178241512041,25.706346151123864,1.2823231567782964,g
9.063677797167113,7.25462951731281,9.848855592745341,6.709818746102778,9.788209658811411,6.361112115259873,22.617096670821464,-1.9019330694157048,g
10.253266855106457,8.387729044907244,11.163473634882319,7.233009910834694,11.117197325261408,4.8636703510351955,18.555499199689585,-4.165090247331431,g
11.458433503903903,9.414426980109232,12.544733477461524,7.988716552435397,12.575719098237196,3.851000616320955,14.631804181257767,-5.389364740343338,g
12.500452789646557,10.194143738553088,13.840337896156754,8.930477608002068,13.945031926082383,3.307151031643933,11.357501741653182,-5.567949225736238,g
13.34422474107005,10.771468733957875,14.927684171196782,10.027239572071492,15.055903823384222,3.132838359815235,8.470238016710733,-4.71517006572584,g
14.059358340923662,11.299071069503324,15.715396227743295,11.224837880203856,15.827247025035458,3.2625201462015867,5.466829934027037,-2.8013632941878415,g
14.698496740434635,11.88335973921405,16.13823005393747,12.424377611972867,16.249234185633792,3.7309383036577564,2.3089336992623273,0.20855321319350323,g
15.18955653603814,12.464801095982471,16.142888025680456,13.482923677033773,16.31910448407281,4.6111768967912585,-0.39468054024700266,4.223406749311497,g
15.323679197993965,12.81388839447811,15.668585411013279,14.240248364573336,15.975580100798174,5.880195550337283,-1.7999854200084886,5.894218004542702,g
14.858935455462381,12.65277849480354,14.654461772228624,14.572670923893657,15.102820096293959,7.347407607489371,-1.363703227335035,7.612199747410787,g
13.687381841471668,11.83430867599105,13.099651116725216,14.450996618734354,13.632219081642429,8.708184828185882,0.857596383784825,9.07232557618577,g
11.956155985411595,10.459387732935175,11.138712482871215,13.960088579945747,11.66918864428759,9.667965510473746,4.201699345401227,12.41079995218514,g
10.035633979221988,8.836474935031557,9.044625083162893,13.254492039077812,9.515426363680215,10.055516554844491,7.693635656847806,14.502103456520786,g
8.322389512798807,7.293455770483976,7.1131036808548656,12.467008950179324,7.527924326044493,9.876451331147855,10.57109391410521,15.328009424716512,g
7.001180874203785,5.9734143204068975,5.493256678443823,11.622970582249694,5.903567479823449,9.276510095722735,12.688222694313186,14.999429797732086,g
5.94689922707011,4.775754354678277,4.101607705421555,10.62292936058625,4.563228650658695,8.4190715165066,14.408593294481184,13.610648090176023,g
4.855110278359855,3.500956260321852,2.7104268982017414,9.326393203998013,3.2464666228554946,7.361974623368167,16.094730619943295,11.17041523697022,g
3.515667150553064,2.0923213494538095,1.1644910422330141,7.695854505645653,1.7616551030624144,6.0468654563363256,17.73313424928183,7.669658964161213,g
2.0290735923748864,0.7743738830296157,-0.43853923981632265,5.8928063331836045,0.19804676378586308,4.409049658851382,19.001029111875344,6.24482296339925,g
0.799647207153494,-0.04466847791170929,-1.7615956009941836,4.2364768033575,-1.082967920820258,2.4888722623899775,19.55290100063441,4.285479908194012,g
0.3016952843754733,-0.04399236236603665,-2.4409999291947018,3.048802604306458,-1.6854565085498012,0.4409227649431033,19.201103446348974,1.9750453175888947,g
0.7908359728138733,0.7918613933186696,-2.3245938933670294,2.5094474991970976,-1.4495496024701313,-1.5389365470624712,17.94848442260697,-2.8018507169687843,g
2.1806336233386325,2.2043629013572357,-1.5295549240981512,2.6275920407411903,-0.5215113336958941,-3.2872815668795696,15.957753280539274,-6.7787593076957675,g
4.16643718274403,3.913174620629346,-0.2821280045534057,3.324536968739931,0.8243417783510733,-4.710205918833849,13.442382955769485,-9.743074261263878,g
6.463928072760633,5.848467112358847,1.2902131728734734,4.529425770114095,2.42547683534829,-5.786908989228456,10.494605013191777,-11.63496661460123,g
8.94152996702549,8.141324609151749,3.20921843370502,6.1984659049420925,4.302268579576016,-6.534361902105035,7.019842655694271,-12.446394340736706,g
11.548093658670384,10.887559559083789,5.503357543701493,8.2530990600802,6.512205785384725,-6.940668239245364,2.8792212193350037,-12.13148657472881,g
14.139059916080246,13.917170583157167,8.027121162959416,10.513362615583478,8.948881904239851,-6.922409055941979,-1.906913991645883,-10.600976905387615,g
16.38728650138764,16.788667890021877,10.42286897172382,12.709682188526267,11.282479454428465,-6.355615901509838,-7.0725643288044395,-7.802996718302468,g
17.871928902668717,19.013640131018068,12.264337951773317,14.580584493200508,13.09328583126892,-5.154932456344854,-12.110247828477409,-3.8222362278875295,g
18.27826390805115,20.313222962829105,13.25920004292669,15.97289857696741,14.078942539397866,-3.336075428408401,-16.294161503491587,1.070659607142036,g
17.55040732439625,20.692253309358914,13.346475220642052,16.850804078632002,14.164966530089984,-1.0378911324526388,-18.815570724973174,3.517822501630917,g
15.877633904223998,20.289899351895123,12.627029222947666,17.21287495197923,13.445200088566349,1.486523685189238,-19.09633720544574,5.829752096631953,g
13.53018165509468,19.168821125232448,11.21593577151479,17.01615710172199,12.033784460075191,3.921821062675516,-17.062258278875113,7.7469163344188114,g
10.686579137567636,17.25389173825963,9.167013631553635,16.19777718323425,9.98292140350107,5.9913794860667675,-13.10098253187192,11.61880927413863,g
7.39833185479363,14.478579466810036,6.534256520675815,14.7740992754721,7.34063405239222,7.543756147772443,-7.784396754840577,14.412871481596364,g
3.7073142810657655,10.989249704360827,3.4891960570886056,12.910735365148815,4.271084567618066,8.54303022161559,-1.6850799884044931,16.08158466994901,g
-0.2088625865264337,7.200335478764693,0.3577887043369339,10.886547918822885,1.0963730435962638,8.981732348756028,4.612671203341906,16.62311287813312,g
-4.001975999762143,3.638414889551065,-2.4737028205126146,8.978742265486396,-1.7953354462972733,8.825494290270637,10.503986638889618,16.051958953419227,g
-7.258142253129819,0.7074506238177986,-4.707472449868311,7.363126159106796,-4.0985043257514295,8.048460349466096,15.449597258002782,14.444059279382722,g
-9.661701088232988,-1.4371765369815614,-6.222088145328124,6.099297001775656,-5.678699958973761,6.706217890225991,19.019351108220324,12.000114409798035,g
-11.73330106549368,-3.5495409497046837,-7.28758007070906,4.661658694403436,-6.802573362535559,3.10336113410134,20.703067425610676,11.934779927630997,g
-11.767467496766749,-3.5786450549192557,-7.0021107337729465,4.55837138745218,-6.489476839776759,1.3953051319109788,18.58748252236949,11.97466986046312,g
-11.42627645894506,-2.8396634072185845,-6.2110691401803795,4.921897474172551,-5.632190503014676,0.07087753728829768,14.849252549700262,9.57571038708955,g
-11.426276458945058,-2.839663407218585,-6.2110691401803795,4.921897474172551,-5.632190503014676,0.07087753728829771,14.849252549700262,9.575710387089549,g
-10.790408903977983,-1.303251357065107,-4.924774243168985,5.732987145887544,-4.248893678192084,-0.7707450393706612,10.035229828092023,7.643911314954932,g
-9.83852997080766,0.8799099954342164,-3.225805778098729,6.904815426854832,-2.433454147510033,-1.1326161654795033,4.796058079562121,6.199298592281679,g
-8.578271803929438,3.346844216378983,-1.3174422348507457,8.309597012800788,-0.40035301302924353,-1.0352655140526241,-0.09782723905973896,5.321213790149211,g
-7.166664130146029,5.624442651651858,0.5049906792336663,9.806230632727086,1.547364473583053,-0.47720647925432164,-3.8279113061739367,5.121954283541665,g
-5.915542151464054,7.307918911695748,1.952950913860714,11.251571405944082,3.1171765670600156,0.50669872698363,-5.801524296535563,5.627522636241036,g
-5.170856944911327,8.206144331531739,2.8557995791173654,12.506159876177112,4.133855800979447,1.76935878088739,-5.891339912296383,6.686925335194665,g
-5.148752552654762,8.370802095185557,3.2132389146309506,13.446188906441662,4.586916429792055,3.064167528634814,-4.417224357394674,8.001797858276461,g
-5.839707579373366,8.00120294132932,3.1496971951654564,13.977481830937453,4.5848347204946736,4.142597310022159,-1.9773570257302446,9.25424094365589,g
-7.045017425072007,7.288317536342174,2.793318668495985,14.04293554770338,4.239409778627801,4.84815202444703,0.7231739032691096,10.233955883269866,g
-8.51727090800351,6.296055648008394,2.1632014691770385,13.622462223238523,3.5603427475263523,5.147169256998057,3.1240296488497217,10.879347317372309,g
-10.098267617613155,4.957035486863746,1.1582524876251656,12.728249220642452,2.44975758463699,5.0963142745078,5.1218151015129605,11.21636768615274,g
-11.751537237104072,3.1840853792554507,-0.33069196139022966,11.399170185547138,0.815139831245892,4.766998009658203,7.0803762250157884,11.251917617594142,g
-13.48080808861366,1.0111065526055443,-2.2712251434451467,9.701925499968539,-1.2879815360208784,4.1684526346354005,9.334307122780531,10.914085307380514,g
-15.226625813663977,-1.349703506528578,-4.4314527741476395,7.740318264555654,-3.6112748780783264,3.239431287813069,11.643789760784312,10.093792032759957,g
-16.84247700343375,-3.5834126640077835,-6.473518860136579,5.654135227175699,-5.81754285278212,1.9331099180115423,13.253048987411324,8.747200709577225,g
-18.165606558495583,-5.427915788630404,-8.135042446126345,3.5879064559799674,-7.659939395328372,0.3098072959690696,13.525714627769705,6.958599245850003,g
-19.107619043980407,-6.798834709744696,-9.363095572776768,1.6479467749813643,-9.10048764598002,-1.472130269565005,12.476805612692695,4.911611428144217,g
-19.679346363750547,-7.797046255995785,-10.298871865101848,-0.10350743900975239,-10.276857763712158,-3.257085516018139,10.725752354764376,2.8142168273602306,g
-19.93285279847843,-8.596071383561537,-11.123479448616488,-1.6033038355679685,-11.341917259065744,-4.969536517639343,9.03235445156022,0.8504058233262606,g
-19.88330898510768,-9.294962195999505,-11.886835502157528,-2.745325390560504,-12.30447259879348,-6.60306812697393,7.813439012764403,-0.8272418999845492,g
-19.492695320651933,-9.850197272844389,-12.46252343036836,-3.4025699695737472,-13.007277293586796,-8.166517715775619,6.8819240290077275,-2.0990010267593413,g
-18.733990789686125,-10.13284699757241,-12.666702547024974,-3.5043434173448476,-13.2642989415567,-9.6459982013545,5.555193033683501,-2.8947640839532425,g
-17.663774203354258,-10.043865076783865,-12.428156605721277,-3.097476953859028,-13.030784084337878,-10.986318803348542,3.1656170035827533,-3.2166212327318853,g
-16.4100866973186,-9.5724629953055,-11.846017728632129,-2.3339100764074314,-12.442836923907413,-12.089442420877315,-0.3681007284634017,-3.1512722796453074,g
-15.068442262983643,-8.753467652434804,-11.081313698079617,-1.3878419170246634,-11.686584802624694,-12.850680749212572,-4.458262698312138,-2.855425504619429,g
-13.607208617873592,-7.589761643476264,-10.190272991864537,-0.35472925389723714,-10.820229833376294,-13.216313936988417,-8.344515854175688,-2.496803891818817,g
-11.89067356861763,-6.035195875234102,-9.060236944586947,0.7990318558055379,-9.714158079504205,-13.197289633878839,-11.619155740097508,-2.1669892903227126,g
-9.819186374661154,-4.062936486002611,-7.511148081561447,2.188016280156218,-8.165342265936584,-12.820616016527651,-14.291795172700954,-1.8340377752634232,g
-7.473636723329259,-1.7591733599812358,-5.478682220961625,3.8806690239117345,-6.093863767322201,-12.08923254321874,-16.520747212047176,-1.391879333642423,g
-5.143972240175122,0.6416664488524164,-3.1266630408768954,5.788993737441263,-3.664775229389366,-11.007619037073638,-18.385338757665565,-0.7739282494494598,g
-3.2141477049855043,2.821412188487866,-0.7940795505032732,7.673444776821098,-1.2371289827229819,-9.633596202088968,-19.76845973845465,-0.03166232776919213,g
-1.9829077364054484,4.510001092292318,1.1839428149431006,9.265115048122295,0.8240506401876251,-8.091080618699994,-20.272520045797087,0.6850482417461203,g
-1.5428187969859872,5.595010545026868,2.6382775793738227,10.403307506147547,2.327463419292596,-6.546459336546913,-19.320507930956232,1.222922187191547,g
-1.7942225115105341,6.1269705233154035,3.5843527516557265,11.080654550534671,3.288663993051595,-5.182079249204302,-16.576990395085176,1.5281075306144114,g
-2.5699884755043314,6.218989758143606,4.096673033078363,11.374214307925161,3.8042175032638683,-4.159558913850011,-12.374270672269738,1.6946820521990553,g
-3.7681311801978445,5.925244159989243,4.160296336751987,11.327080843155498,3.887428924495103,-3.5639755123732506,-7.657430469205035,1.9181658699766686,g
-5.397448423780805,5.1925070230020385,3.626714814345412,10.869285973923697,3.405177725302667,-3.380416566924415,-3.4513748595619576,2.3608078956019694,g
-7.522364379945347,3.909387340661861,2.2998703079023164,9.835030329020364,2.155820601942749,-3.5508516654266336,-0.3519705049647673,3.0117861030432227,g
-10.165856160583305,2.0033001328797826,0.07304867100591128,8.070716602499761,0.014227699084192658,-4.057588499372511,1.5830824750723118,3.6575192265180334,g
-13.237992720869503,-0.484472207682863,-2.985255773391836,5.562707680922237,-2.9654277929747974,-4.931254062536758,2.604611098679908,4.0007599793207715,g
-16.52413968158011,-3.3860192844410926,-6.643146373471993,2.4927910362399643,-6.550598510157087,-6.174219216805503,2.9326106681201902,3.8449421820176513,g
-19.73583673288239,-6.455457079262199,-10.588371382302427,-0.8164648573524789,-10.418253168860453,-7.691512370107691,2.4927535976584743,3.216259256756306,g
-24.947440978026314,-12.160344844914887,-18.164737222472166,-6.840613109898373,-17.817117800300107,-10.748211776857495,-1.9869233043096446,1.5906587138792556,g
-26.705217218359213,-14.456352430109158,-21.298049661087276,-9.111071943280866,-20.87802872634457,-11.844874461932653,-5.926570705260138,1.169546826114868,g
-27.855956618770165,-16.197329005009706,-23.678913714808456,-10.734802014973683,-23.21572714494104,-12.456625595490063,-9.961927283797102,1.1296288549508335,g
-27.855956618770165,-16.197329005009706,-23.678913714808456,-10.734802014973683,-23.21572714494104,-12.456625595490063,-9.9619272837971,1.1296288549508338,g
-28.36290263540788,-17.229339322676957,-25.092174078890405,-11.6491760068925,-24.611931675034327,-12.574447575979915,-13.123685608347557,1.3072236128707568,g
-28.16512293857686,-17.409067743300977,-25.410745351418807,-11.806073291135501,-24.926897437045515,-12.269418984524409,-14.968531755968531,1.4765928332976397,g
-27.224469703764488,-16.66626497428019,-24.643500641831935,-11.193889074976841,-24.163362206207673,-11.604274539020038,-15.676316790479452,1.5189743987074151,g
-25.56718695756307,-15.044560599446521,-22.9122439381505,-9.87292886300501,-22.45573692284951,-10.584769003044471,-15.729432933731228,1.494737982323787,g
-23.281406125944308,-12.69185183920223,-20.376636359937706,-7.9753595477764225,-19.99115306488012,-9.196727740983698,-15.534786978952416,1.5798511673993918,g
-20.48578949015652,-9.816858051415895,-17.17836374758571,-5.6549798913220926,-16.933108549441233,-7.470282761784,-15.183092818950707,1.9328763645649292,g
-17.30907924474861,-6.643365977913248,-13.455014642715728,-3.0333348955063126,-13.411982235662942,-5.500222089184495,-14.398460543433682,2.5911264394103353,g
-13.90644095894918,-3.3846858774252175,-9.41049757595967,-0.2038767609885035,-9.588426426511866,-3.4284175276595086,-12.761478695674004,3.4573287648438926,g
-10.505591254173885,-0.24953598922797796,-5.381704276032737,2.699675267848546,-5.737892700355844,-1.4244871485537376,-10.129743957725456,4.3769236045962785,g
-7.436346735292662,2.5320678584214464,-1.8342072290027667,5.434404291050275,-2.2783126014633033,0.342469984108558,-6.883144851613032,5.24793483742616,g
-5.084306479934462,4.704951124973002,0.7454688372942435,7.656312464441356,0.3136081963328117,1.755952111591959,-3.720013331720101,6.0790766865193095,g
-3.7653688012062205,6.0415906704487385,2.019855565171202,9.027240793807348,1.6726191508750727,2.7901704000872307,-1.2208583917975955,6.953327036542315,g
-3.6095386142848076,6.4259959422356,1.9227840734158868,9.360162115850487,1.6908709713427883,3.4898994962867667,0.40194760523213124,7.94054592206853,g
-4.557777525728833,5.897405113277707,0.6388837443934974,8.698165054798071,0.5277667982698242,3.9173337597930455,1.275337426851579,9.04259022783869,g
-6.469814245050303,4.613398895031962,-1.5426186516961025,7.2599849492599775,-1.5213867522065727,4.124718517078571,1.7382767868084898,10.20165797750696,g
-9.227555948420585,2.762508881722119,-4.37900018981229,5.287474079410305,-4.188767218078265,4.157239459543825,2.173268403703137,11.328927386332216,g
-12.734321825623981,0.488832875909157,-7.7208631087780955,2.91578874382603,-7.310185816395958,4.049857874510506,2.7558821104316427,12.30860556531537,g
-13.29368215293592,-2.126692151307561,-11.447219880477373,0.1734331956804649,-10.780970618524801,3.8200461016801235,3.292070179953447,12.990078853672648,g
-13.98105529186779,-5.016391958515626,-15.362101434146973,-2.8906261807395763,-14.44650090657378,3.488808818199163,3.394703289365424,13.211520027077313,g
-14.570737308524352,-8.034861654396769,-19.133569310852014,-6.067894296628721,-18.014654661052784,3.115573791594774,2.8962852907935934,12.865925292637181,g
-18.224514412583144,-10.899366958432068,-22.322412233044258,-8.970160114357832,-21.06162545891491,2.791967690916157,2.08504860135257,11.970552461274398,g
-20.86659583895446,-13.235572132364183,-24.501434490842033,-11.164405979457674,-23.150204593383215,2.5879531000614424,1.5599186027385756,10.684242919725296,g
-22.243747842949148,-14.721963578723543,-25.408926006502824,-12.37352563682677,-24.00076278740407,2.507405187873375,1.8882355101688735,9.244125895337861,g
-22.301200033207568,-15.22818996339726,-25.042036209256395,-12.598053825320813,-23.60183583756034,2.4899695082542124,3.2965220074497155,7.850377954559562,g
-21.16162676864149,-14.838866020475582,-23.62738950157543,-12.07154875860849,-22.182101770370828,2.4402931879326877,5.479916621834345,6.58165519513373,g
-19.062349556600648,-13.756231227082711,-21.49545402074593,-11.088617441248127,-20.07162694196613,2.2669955654410443,7.648197687763334,5.416334516831386,g
-16.28489695920366,-12.1737516388437,-18.949725763674167,-9.840254871145618,-17.559258685719087,1.9364856397573775,8.932790356583142,4.344071263690887,g
-16.628671801273367,-10.217159622012318,-16.205655120691784,-8.375540950004027,-14.835177585440487,1.5151197827320746,8.943731941462566,3.457917041875524,g
-16.91898386784891,-7.9773295769566825,-13.407274024816719,-6.693164445222917,-12.024208615348133,1.1413774796553917,7.97129325319207,2.9303542033131817,g
-17.0741492528749,-5.584723776253506,-10.676564270111289,-4.855714219916724,-9.248414419151132,0.9302141001508547,6.630857366557298,2.8927716770875085,g
-13.540476727213417,-3.2480281002348037,-8.143281374033217,-3.017330657096192,-6.653470488072881,0.9002932482350496,5.344488204336296,3.3287960843904285,g
-10.106248526743107,-1.2135053295721117,-5.934470194902467,-1.3556558974485964,-4.381800423987416,0.9919839515411475,4.15059974804922,4.0654752143720305,g
-6.989117543556494,0.32265143638010557,-4.147898595256354,0.006421558184361587,-2.533010556746897,1.1335117342669085,2.8921739709975105,4.851791222672336,g
-4.484010673563708,1.2628273374074037,-2.8529171715264736,1.007590625186809,-1.1675249500832963,1.2725072016508672,1.5163098928702934,5.4559398070504885,g
-2.8810804436020447,1.5669724618509353,-2.128315194883152,1.5872085707994459,-0.3597904418143057,1.3595825003782527,0.2690608086475052,5.723842394969107,g
-2.368373247353644,1.173659440520488,-2.090752170352693,1.6326609851283869,-0.23912465701585578,1.3277963781609066,-0.34799634365795057,5.583639386205244,g
-2.9709808662816477,-0.016007146667158512,-2.8629095709164254,1.001192838749572,-0.9543059176889077,1.0918570455948593,0.0627512285063885,5.018243517657983,g
-4.564300258703173,-2.0635828522102715,-4.4969034710402465,-0.3938661483620831,-2.5798623724705574,0.5638753075044851,1.3375234898820059,4.042714091000606,g
-6.961968510372285,-4.907900868316623,-6.92703974805786,-2.509629450890439,-5.054279280180103,-0.3113206671247524,2.7056204774303967,2.7034274258409448,g
-10.01556679108717,-5.342584108104058,-9.997383018637555,-5.182060526017206,-8.209290480995055,-1.5132998127903665,3.3489878668115045,1.0792533130818136,g
-13.630681833564157,-5.888544702590733,-10.203907290223224,-8.206090327636918,-11.848134331970616,-2.9449997530444003,3.032113190620087,-0.7391772445958955,g
-18.280843065346648,-7.240234819818829,-11.007738718474489,-9.816689559984317,-13.092933210511884,-6.092835582079741,1.0054043887938033,-4.6538926604444395,g
-22.046565074291387,-7.8845155084481835,-14.551820841116381,-12.835873789601795,-16.812976482262556,-7.681619595749733,-0.3420100428762998,-6.558087281357038,g
-24.87795839067901,-10.793628912000816,-17.395284988329685,-15.383057739968683,-19.824339357482597,-9.136411951913352,-2.3059756519247734,-8.205592627514172,g
-24.87795839067901,-10.793628912000816,-17.395284988329685,-15.383057739968683,-19.824339357482597,-9.13641195191335,-2.305975651924773,-8.205592627514172,g
-26.382351307652584,-12.792916963526618,-19.158277368612055,-17.182202380836195,-21.71291587606021,-10.254940552842895,-5.135994925806542,-9.404145072850806,g
-26.464858465744875,-13.663575118349437,-19.629289256467125,-18.077601954715014,-22.246679696772222,-10.857895892017359,-8.521653283388904,-10.049275517265778,g
-25.311375922685073,-13.368743237293888,-18.83017863162775,-18.0870532556497,-21.45711915560277,-10.907196252937553,-11.55402907411408,-10.184190039070666,g
-23.234051022954723,-12.068575206391529,-16.95065282796613,-17.34071916060707,-19.569107744733298,-10.532790921609989,-13.213131367496151,-9.968863501155118,g
-20.50177692816816,-13.044405711274399,-14.21194173829556,-15.967039641727016,-16.841726139112627,-9.953529060900456,-13.14849679705936,-9.579210892272108,g
-17.293463157193255,-13.780823328068092,-14.113387687993665,-14.035787520784424,-13.470423194435671,-9.353532226950469,-12.070978744393944,-9.107272946152467,g
-17.337160913514744,-14.256285710287553,-13.652709170821648,-14.002321121815203,-13.004290250461626,-8.789502587521035,-11.206349977978803,-8.530902844781323,g
-13.878362165329651,-14.511853363318675,-12.94399526997008,-13.631039449662671,-12.31019604578465,-8.192580287505892,-11.197560032966003,-7.772455019964656,g
-10.88514273244588,-14.672312490741849,-9.115363725516907,-10.76868731798862,-8.556020310831496,-7.4774177073780566,-11.569217001257245,-6.798687261550603,g
-8.723404545750268,-12.36626816026435,-5.9828557876109425,-8.11221399227276,-5.495316295571088,-6.669440780823457,-11.346037350234376,-5.679618687764929,g
-7.523684152857402,-10.594390934197593,-3.794515455860558,-5.841906410908061,-3.3866834519232305,-5.914199409911163,-10.173257216139032,-4.560135116822915,g
-7.1667091961257725,-9.32195670045501,-2.5302179866543417,-3.967382443057616,-2.206148166016315,-5.342682995020862,-8.795432857006034,-3.5747310612045453,g
-7.427184361658651,-8.400165508695808,-1.976867187496803,-2.404762443455796,-1.716037222699839,-4.930438786412587,-8.467877285938325,-2.776711625087725,g
-8.145273300131104,-7.677817564120174,-1.892891323936977,-1.117738871796223,-1.6467209662581852,-4.499101665765391,-9.861829909568549,-2.1254047530867655,g
-9.29634834972545,-7.09663157432542,-2.142627844667314,-0.18791447764783503,-1.8567709147459723,-3.852896087737753,-12.372013631352338,-1.5217041830514368,g
-10.930546429054155,-6.70350320455406,-2.7193732660354906,0.2508601080791156,-2.3646478724566045,-2.9183872971196005,-14.404142907634386,-0.8578551029398822,g
-13.056705217743431,-6.578919728544022,-3.666538068837037,0.14982512922776162,-3.251134035980872,-1.7845399468277972,-14.520106357487222,-0.05661295018551358,g
-15.574647684301505,-6.753334608114318,-4.980807337575561,-0.3758398624775816,-4.532271608303041,-0.6359978358838162,-12.577840577539643,0.9080277785534235,g
-18.296473592582732,-7.18698765511129,-6.574532475170189,-1.1013526581148922,-6.10704864555425,0.3700748433582213,-9.830726505124684,2.0051940322893076,g
-21.003462032709077,-7.807659624396632,-8.297298973945832,-1.8324115039936146,-7.793370252740476,1.205932133049861,-7.800544335717412,3.1496644807883074,g
-23.46632722605488,-8.534890973873974,-9.965109546328044,-2.507337936464036,-9.389094367624002,1.9699592986982606,-6.946648734127346,4.212957846277934,g
-25.436388359211797,-9.260021181577425,-11.380075839900593,-3.177370605982574,-10.713270020730368,2.7638432894160023,-6.372231491275434,5.0534863719278755,g
-26.6820638396287,-9.838186404397632,-12.375127875432405,-3.8991353210158586,-11.640657775004966,3.558612018522598,-4.745294204914958,5.566225808411225,g
-27.094595221098707,-10.147812868761942,-12.891611046979069,-4.653757612804507,-12.142194098248229,4.1856843469700085,-1.4998560022010978,5.722040778898608,g
-26.776138101040424,-10.178051258801963,-13.023861174919665,-5.369300127559535,-12.296913115969547,4.460954876731249,2.6711384324970497,5.5576858407775545,g
-26.001272560493014,-10.044628237465842,-12.960094211426547,-6.008971147613602,-12.23733555869417,4.3176511738778895,6.283541453511426,5.11885462336463,g
-25.051886377581035,-9.892682239409428,-12.84165230823712,-6.619656739880375,-12.05156786581822,3.8419166336145176,8.06681704515969,4.41198573020346,g
-24.051779364187375,-9.758563168389136,-12.653094544497877,-7.2834550824362525,-11.718411678742482,3.215665073718123,7.794582226081198,3.4184500984406547,g
-22.943021863009676,-9.515719285873242,-12.246448018019873,-8.021532830123475,-11.138084018032313,2.6256486093008236,6.335524384807696,2.16200989673266,g
-21.63460297301475,-8.973225916657347,-11.499508136601017,-8.749667938373976,-10.253102879601293,2.1823750853558623,4.893329072475568,0.7661079722341502,g
-20.204812046173252,-8.068310293621195,-10.492145604036178,-9.331602750702983,-9.177762997197174,1.8845133778452368,4.1253210982307085,-0.5528834123788631,g
-18.973985871441208,-6.993360363414643,-9.547833531565747,-9.681346520259934,-8.22332044490483,1.6572158799486476,3.9071030639277176,-1.5573242737775768,g
-18.356023538281825,-6.1248341213236674,-9.078291439041477,-9.823305152049745,-7.766239209841887,1.4359656373137022,3.7636466533461834,-2.0834915644072947,g
-18.59157844791228,-5.785952340916878,-9.336196071614305,-9.8632647989387,-8.039128627539545,1.215051256356864,3.3422598722324537,-2.1096614488529477,g
-19.589926596327857,-6.038908556565047,-10.277151411165105,-9.906361748920935,-9.010984036195353,1.0225905160578628,2.5309833340375,-1.7635307391825765,g
-21.022432547319216,-6.6910861933128105,-11.646423810125636,-10.00320782518953,-10.45804736057838,0.8725572244502414,1.4141107512394955,-1.2715806618669316,g
-22.5828195474734,-7.503768896393671,-13.20524013712166,-10.172244079690595,-12.15638236303814,0.7498640104837409,0.3002332062336454,-0.8889350579238571,g
-24.18037084056073,-8.40291214798241,-14.891042155893405,-10.465963666290994,-14.021745959097151,0.6155277209168822,-0.31212394023145745,-0.8480525434769518,g
-25.905549485341233,-9.49919852900022,-16.77964034564136,-10.99947891496264,-16.08326871777534,0.4008480142698934,0.014167759226965514,-1.325968054201098,g
-27.82062939258271,-10.912061662811675,-18.901769831388684,-11.895543767954887,-18.333524477621204,0.01024149084189201,1.3790688761781038,-2.407066728555338,g
-29.776796754080085,-12.57113384268323,-21.08858437369764,-13.1875226261248,-20.600489255875324,-0.6389890129347661,3.497581630901295,-4.047300808628251,g
-31.424349296863237,-14.181264852481359,-22.98802264757674,-14.768380463240305,-22.560871032043387,-1.5698977974559702,5.824506698439832,-6.078833079604754,g
-32.61090742729492,-16.013327619433667,-24.73652149679245,-17.96010732065568,-24.471889093263716,-4.061741524204497,8.526120164124137,-10.39246918013664,g
-32.18012394495612,-16.144685331042137,-24.594620300561385,-19.21215706390487,-24.406684330918566,-5.421133925381708,8.106568589836781,-12.260651482175811,g
-31.424191233334852,-16.031885608848796,-24.12376461212591,-20.12791405425967,-23.96149849167782,-6.683209755270511,6.709054142728739,-13.711906154629233,g
-31.424191233334852,-16.0318856088488,-24.12376461212591,-20.12791405425967,-23.961498491677816,-6.683209755270511,6.709054142728739,-13.711906154629233,g
-30.574844654041765,-15.859429387931709,-23.554873992304053,-20.70170622998379,-23.35194368277197,-7.733410820546915,4.818486610476159,-14.595398150889423,g
-29.679288843022846,-15.611841807934706,-22.910668302060717,-20.935305390499828,-22.624517580964287,-8.521608243979305,2.754045461153928,-14.786966803618586,g
-28.66157500829185,-15.12976154619648,-22.043380776000742,-20.81392320323427,-21.682214266748513,-9.061079676585345,0.619356212923565,-14.23809802468412,g
-27.461976394855704,-14.287573530200103,-20.794201376212566,-20.31800026590615,-20.412605391605247,-9.388346039402737,-1.4860181837018085,-13.029222290118337,g
-26.11548447263479,-13.129490826405203,-19.139761337248427,-19.456782940238305,-18.804472449356417,-9.536706434255613,-3.4405073144356955,-11.37886671478933,g
-24.72165164535418,-11.856331285265389,-17.226316167388063,-18.294135508831513,-16.972977556211386,-9.530221504172962,-5.3494230296079746,-9.575465154747622,g
-23.36502518024401,-10.6866295757573,-15.284163340148908,-16.9479876967351,-15.093322895531179,-9.35799897032761,-7.64466440134795,-7.860601840582864,g
-22.06750346987885,-9.711620450184755,-13.490932574728044,-15.564878415144666,-13.301574656874124,-8.937529204921862,-10.756024392329966,-6.347519609892841,g
-20.80051765381265,-8.859918962716625,-11.87811835756801,-14.275316052901662,-11.632586277312823,-8.134510518625987,-14.636313828480016,-5.032499539201236,g
-19.527108349212607,-7.993079198638097,-10.343033197697862,-13.136182591681157,-10.032998485743347,-6.853434931437238,-18.5959737845548,-3.8678730769898357,g
-18.23077738894249,-7.043143137440056,-8.755185054455517,-12.089266441928674,-8.43405137623532,-5.115867071362746,-21.58027443141571,-2.818492084960904,g
-16.91797490053215,-6.073151293524211,-7.081456105829592,-10.987008238631507,-6.831456119284562,-3.052755301149617,-22.714553563209098,-1.8660296151400568,g
-15.616340981015838,-5.219011444067098,-5.446638659591485,-9.702433002329187,-5.323142476843178,-0.8344403327870807,-21.828944882286955,-0.9888839802457745,g
-14.389343591821747,-4.578782146725335,-4.09261416526432,-8.256917534656775,-4.086540126571332,1.3963927636074907,-19.590242266432423,-0.1567020889281452,g
-13.349408651869245,-4.150890643901083,-3.258772005174854,-6.856114513957904,-3.3054032724616818,3.561525058598393,-16.98168471905271,0.6481273284728338,g
-12.629209677133769,-3.8656982559068553,-3.0480086013425813,-5.785503743487496,-3.0765578575199504,5.645923805817421,-14.429963678002725,1.391607334512892,g
-12.307518695355185,-3.670918466038507,-3.3579306259431965,-5.234149566650466,-3.3461368987526385,7.641420196294741,-11.400040300150021,1.9580978211650326,g
-12.347243601330785,-3.591594838058088,-3.931544668375806,-5.17952087918823,-3.925032633153351,9.46177841037185,-6.957305115468666,2.1676874353357065,g
-12.609992902761409,-3.711220220396785,-4.508302357030578,-5.422681640967113,-4.5892660150966895,10.922169253011957,-0.8125613001827432,1.8548258309374905,g
-12.942520048245598,-4.087609997364954,-4.975530160082347,-5.748290119577642,-5.203229157279985,11.83636930386627,6.142044277869688,0.9608444816841943,g
-13.256895581635575,-4.674356330748541,-5.4060273390432565,-6.082586421793804,-5.774904892253195,12.150655040874073,12.267846791171944,-0.4326155593785822,g
-13.530592069672554,-5.317637500051655,-5.949118251267783,-6.514377995931952,-6.398379634483428,11.98322820702052,16.173654139715403,-2.147119803367839,g
-13.732935443035753,-5.835835072191161,-6.659617605853603,-7.152427915885928,-7.126628860056114,11.544267513301039,17.501179576162336,-3.9748721160060434,g
-13.757719704801843,-6.12009930631539,-7.402967581769724,-7.942885046432299,-7.875618744336981,11.02633909935098,16.97805554330029,-5.71822007066925,g
-13.434927035078854,-6.179255920345308,-7.917310084343653,-8.623993261369632,-8.442041473835339,10.545763935438966,15.743757560854831,-7.205986542603972,g
-12.615984770269254,-6.100222459705496,-7.987567142817492,-8.8818648404258,-8.629945296740255,10.143010806104192,14.51489523038517,-8.316870841116918,g
-11.252405954590358,-5.957809139449755,-7.590961372171722,-8.583905901335067,-8.386297709947002,9.818802784931194,13.335530701649228,-9.009173424095904,g
-9.387170675260219,-5.73667332523618,-6.888388839541579,-7.88448002508448,-7.823177656949707,9.579076044305463,12.084393647529694,-9.325350677402595,g
-7.0569872502630675,-5.315581330870522,-6.06162141853755,-7.103058932650382,-7.093859819256754,9.447677224988434,11.062447731359228,-9.353169497726887,g
-4.195144777825687,-4.529237811590244,-5.135700677231557,-6.4723488300423355,-6.228213920434333,9.424230137898089,10.919773661909776,-9.164337767346257,g
-0.640058785478837,-3.279423334998814,-3.9496950132052477,-5.96586588813966,-5.08487763162328,9.434632614376948,12.034317530916546,-8.777466613500838,g
3.736094192057216,-1.627274355090075,-2.308385336606576,-5.345176118217216,-3.474548055619988,9.34881567903847,14.090231852530783,-8.18193915076174,g
8.884413497191424,0.20651205336754802,-0.1775492594534418,-4.378351910526236,-1.3440924713587792,9.063844547111707,16.25291575696236,-7.408961282708148,g
10.72171743382267,1.950327112012738,2.2551842783780467,-3.0372620789037823,1.1463956599945182,8.570505530757787,17.654464492183244,-6.577784014147849,g
12.302190315809186,3.428948295144015,4.702551629878939,-1.5088240972162936,3.7166230708031236,7.950962858413415,17.77992005660025,-5.846191444442889,g
13.451567865587482,4.64168811478656,6.965008790796088,-0.027865703998969947,6.138243142062512,7.336988122605118,16.623993308518244,-5.283180484069007,g
14.099979794787298,5.71573447827848,9.017989665235254,1.3041892030642779,8.335881820053292,6.869965831807423,14.598357712894648,-4.779421843986561,g
14.266803975921764,6.771588682957427,10.930791616658144,2.5529128970277863,10.336831793671417,6.6606329576739896,12.19506675859086,-4.100151969794814,g
13.985333168555787,7.795325250138805,12.69390706288797,3.823007826301062,12.11976191629977,6.748904961320763,9.643610324969764,-3.0576452182942426,g
13.230726600194165,8.60851264871901,14.112943212290352,5.101757833710616,13.506524462483409,7.10213760091831,6.9133637490891475,-1.6634858459765614,g
11.914121822626347,8.968822941714759,14.882209826872028,6.220040971485476,14.218708059297574,7.667881249678023,4.039838260922038,-0.1339053896567087,g
9.948916693284838,8.740715734815515,14.798302781917808,6.959802182251545,14.075159896436867,8.425831594216747,1.3461931881526377,1.2520103614992515,g
7.962067195618109,7.016509404004111,12.618467257457366,7.016680380360318,11.785733858625889,10.50056095228113,-1.6538772584907104,3.0776246455224507,g
8.581499606779259,6.042721855339545,11.233465039173398,6.569507033507935,10.322538906285349,11.711423905500087,-1.37931128150854,3.622342831207747,g
9.18377100499786,5.243408433706997,10.034504971619258,6.069093139712402,9.005075000531198,12.90002308016797,0.06113860900795274,4.036265483967686,g
9.18377100499786,5.243408433706997,10.034504971619258,6.069093139712402,9.005075000531198,12.90002308016797,0.06113860900795274,4.036265483967686,g
9.767634383450252,4.67586323715359,9.132228219066997,5.704494255623297,7.94637509824895,13.969350776107959,2.282801520920663,4.313731113689773,g
10.331842735312792,4.402999361991449,8.632685137241946,5.678491323157677,7.282449835204869,14.874349918544658,4.767201266205641,4.40767530175445,g
10.87514905376182,4.587196788384768,8.778834891115796,6.232565658868522,7.299664962055244,15.633552504718335,7.283905962504034,4.31219148873374,g
11.396306331973687,5.4824668499972,9.949773300225708,7.593769208569475,8.405004558171267,16.290821530283598,10.109092895307224,4.086557972464329,g
11.894067563124743,7.320297009851826,8.952173562575476,7.229496859538287,7.573416160202124,16.837741213306497,13.637068846616833,3.8045505562851134,g
12.367185740391333,7.191435612216016,8.540792976760489,7.150188381279254,7.314451056687444,17.17707244988758,17.720337023189966,3.505317340771877,g
12.814413856949807,7.4246840341835085,8.669820009569634,7.281199454632973,7.554610080691836,17.196614398566858,21.500003137079144,3.216444200599342,g
13.234504905976513,7.890394678529519,9.11929403146825,7.4995790723586975,8.073511333893272,16.896296322023254,23.948563494746843,3.026080739019643,g
13.626211880647796,8.414187191853982,9.605183596771946,7.686871450838856,8.619131695221519,16.428911410711187,24.554504016136526,3.1136070404757383,g
13.988287774140005,8.83741396040676,9.885326359335604,7.748223684042484,8.996932387606321,16.007293970911917,23.52241320690046,3.6853025987671244,g
14.319485579629491,9.027847676765282,9.781757768232636,7.583380626473778,9.06177593500521,15.781733887603746,21.443516363748298,4.85898877419269,g
14.618558290292603,8.85245008115678,9.131954664828225,7.049257678961878,8.647639811885567,15.803326003703779,18.819794818863006,6.596333159726932,g
14.884258899305683,8.1595581522262,7.7467773808015306,5.969248805263507,7.529904623129562,16.072916691814473,15.80329448745493,8.742561836693863,g
15.115340399845087,6.802943722509559,5.435634080521868,4.202674148652245,5.476503837171116,16.601682530348445,12.30331628876684,11.138693972174844,g
15.310555785087155,4.700335401317298,5.632900222110612,4.357188089399294,5.7217584801678925,17.436834651614223,8.366711886849519,13.70393657481068,g
15.468658048208237,4.859469029332901,5.736026935288186,4.433369495688408,5.868512077999631,15.895567777997181,4.483468699427495,13.657176438876538,g
15.588400182384685,4.933939680834268,5.753680143960231,4.434072879961787,5.92254289329002,14.665594944615624,1.4869819460768912,16.40266660134056,g
15.668535180792844,4.92658458434649,5.69452577203239,4.36215275466162,5.889629188662755,13.744923081250027,0.15115681364042927,18.928975275767833,g
15.70781603660906,4.840240968394662,5.567229743410295,4.220463632230103,5.775549226741528,12.979786327910336,0.9351818253894463,20.833906724161757,g
15.704995743009684,4.67774606150388,5.380457981999593,6.291446767493833,5.586081270150029,12.149946454569191,4.051445736314426,21.705223912022642,g
15.658827293171067,6.95083044697122,5.1428764117059185,7.823218948178932,8.576641705433108,11.065061121697083,9.511905903100068,21.262450154211358,g
15.568063680269555,8.639524307057354,7.826352619921764,8.829957052017516,11.023559352925945,11.775764613146276,11.164832577365619,19.41956033761142,g
15.431457897481488,9.854452272687926,10.153301236652583,9.400887712110704,13.050047044338243,11.451784669691893,13.043763918957342,16.260104634103467,g
15.247762937983222,10.847960868555834,12.298087774725841,9.706762110136424,14.871892149369978,9.995995624253684,14.712385637807435,11.980540011514922,g
15.015731794951108,11.913519333762668,14.478787733378047,9.970232648361065,16.734931696320295,7.531895966998752,20.128862245791275,6.85979318289935,g
14.734117461561487,13.274479417392882,16.910495603645163,10.42031358866171,18.85587214239279,7.0998662827621555,23.16376233307312,4.018841675113767,g
14.401672930990708,15.03358235057085,19.76626831413517,11.252109559386392,21.391362770140127,6.358308205580586,24.212283824572133,-1.5761475230078932,g
14.017151196415123,17.180722699562423,19.652981884924667,12.58703556230797,24.41867861988956,5.46458014101105,23.945780223560924,-6.666378454056863,g
13.579305251011078,19.61552411801916,19.59601702731417,14.425086597996923,24.3433284872475,4.503940601181489,22.690614841903585,-10.831624049487203,g
13.086888087954918,22.168508385107128,19.58562633295967,14.339134360440308,24.332360011549486,3.507033262273584,20.091441776292164,-13.855629807403222,g
12.538652700422995,22.13684529806713,19.611863622936898,14.83658122037942,21.12405607783741,2.4861639185893694,15.352065103927178,-15.723677784759932,g
11.933352081591655,22.40592159866547,16.701382284254414,15.680876759037588,18.435570222330625,-0.6909277353333334,13.70326508659591,-16.494098132138358,g
11.26973922463725,22.857756468287626,14.130089890727557,16.69248477776081,19.324797068448614,-3.151108292368727,10.511154886608741,-16.16582363913566,g
10.546567122736121,23.34408600284595,14.661571693139958,17.74145341632801,19.994969292060635,-4.6518572183760565,6.199319594147569,-14.67810377342651,g
9.762588769064624,23.667579829122886,14.790141600572477,18.66158327100907,20.23304673510624,-5.142049488006654,-2.613878160758934,-12.055931799702877,g
8.9165571567991,23.55917465566149,14.289274764169182,19.172104899190742,19.782389609040756,-4.805054702877954,-8.902472236486409,-8.577018611633553,g
11.0562999421442,22.708235151819146,12.825801107883388,18.902261965085792,18.330098615244008,-3.971099461052654,-12.329002164200364,-4.801915152232045,g
12.006398683881532,20.887131911721394,13.572529413516047,17.54338947199289,15.612999552935467,-2.9732693544057205,-13.543649840485822,-1.398422000994484,g
11.861120453492772,18.111000370768906,13.394574266905186,15.044592067495353,15.1605304930741,-2.035082408508677,-13.825015782513512,1.1509022140190548,g
10.949833148442433,14.692995544767166,12.413092596621363,11.697630023224672,13.9472576044709,-1.221655268908627,-14.307922844051632,2.746402533897212,g
9.69760433370668,11.10492313017399,10.92824115183309,8.00557317357717,12.28000811604545,-0.46781506580282584,-15.144988307008997,3.5962961279890338,g
8.43077152160031,7.711800220293398,9.26277140699928,4.400015641797207,10.468390071216845,0.3065732110688068,-15.339383608818697,3.906237727545824,g
6.117343873574308,1.5071742039230203,3.1034302530301305,-2.2355486735465226,1.0095571062551096,1.5598086832593063,-9.378799224373338,2.2919495186543037,g
4.900630053460482,-1.683821354434529,-1.0023744371507248,-5.501475712010117,-3.0701988031217815,1.5696329739853323,-3.691180990117309,-0.3682012831118172,g
3.619257019090265,-4.893831627305734,-4.6364266508340775,-8.666241837724325,-6.631263362137808,0.9760863257503234,1.6420744585848617,-1.6037228437348645,g
3.619257019090264,-4.893831627305733,-4.6364266508340775,-8.666241837724325,-6.63126336213781,0.9760863257503235,1.6420744585848617,-1.6037228437348645,g
-0.6161861486500225,-7.679019169429225,-7.474865555541247,-11.36792196022494,-9.33926413472323,-0.09618113199033988,4.914677216316627,-3.0974075453103387,g
-3.3906041003963994,-9.478805124964184,-9.08007244802912,-13.187513495966957,-10.779547682000103,-1.362277396330653,5.526377035353011,-4.499495025051013,g
-4.583935368399135,-9.940266882268629,-9.185000657472578,-13.894411425034772,-10.724011547965368,-2.5290657388051327,4.2683813449294306,-5.541644863804455,g
-4.4059977193981705,-9.09007398401653,-7.885708332932252,-13.548873243103746,-9.294149214723351,-3.4256518279291805,2.663623602189465,-6.151797772531166,g
-3.274574717061988,-7.252605156531236,-5.603523555116545,-12.405316101126392,-6.905395212347246,-4.044521756269668,1.748587964642153,-6.40377086173158,g
-1.6173013767531994,-4.824789323871751,-2.8696436568520474,-10.720909991530263,-4.060994845511163,-4.466075029883773,1.3085490091111946,-8.376680232059087,g
0.254968172423611,-2.096409946052367,-0.10181218029626908,-8.632796061629287,-1.1571210779407486,-4.7144301286180665,0.29752773379975295,-8.974504769955379,g
2.15437433910268,0.7845755616140778,2.4908920138507407,-6.1847088581785785,1.5894395152590206,-4.673234517834096,-1.9910820902712587,-8.008882442277445,g
3.961302251638793,3.7373859321154,4.858614364504135,-3.440452737933718,4.093887352085486,-4.15476681276692,-5.184823170587572,-5.4819038051225295,g
5.5845595143778315,6.66088846636057,6.995907685938674,-0.555802066525955,6.313919728382075,-3.057095612143135,-8.148032758439665,-4.4765582556115415,g
6.952340654601931,9.39820867617313,8.855096347551365,2.249641026705227,8.191992402659894,-1.4493322761035823,-9.877555962485655,-3.3360555935538088,g
8.000048680740349,11.752827551982966,10.328940577590958,4.763768229480266,9.647932758966263,0.4813924432910904,-10.116915358747534,-2.165882162858547,g
8.634923753953895,13.518799206060525,11.28229691172523,6.81231759746955,10.592069200250524,2.5369093760167276,-9.292504435580135,-0.9382574820345345,g
8.709655262052149,14.504506719643837,11.593944210652758,8.239567002525858,10.932070976775153,4.564994835723189,-7.962900291437083,0.3746172932095771,g
8.059276453832661,14.568117123924884,11.193530235882724,8.899987820229338,10.586141721417714,6.452393131923254,-6.267583002548166,1.6899807565303082,g
6.60615986768025,13.681448228405651,10.095856354417611,8.701994404880425,9.526138743763676,8.093601668758618,-3.8629062391957776,4.848534966104749,g
4.453546369299429,11.982482300873908,8.416269885103116,7.67277117929026,7.828178901368811,9.364051043122618,-0.4554992033598587,6.674177578120288,g
1.8643769247944975,9.739480237029824,6.33338280584333,5.975798088537156,5.6670649781220135,10.12203350879857,3.5878577400940754,7.144259397521516,g
-0.8870229434375775,7.2105069688862615,3.9991290692429295,3.8462661765992463,3.2291525313860374,10.261529265811735,7.2636257899568335,6.541793100687599,g
-3.67192348276509,4.500818569150518,1.4609679163042235,1.4820596409300406,0.6096302829280053,9.78589692925265,9.629537722431264,5.310776935184192,g
-6.527010456271585,1.5583888047596903,-1.323038831332259,-1.0218268927772003,-2.2032877228699514,8.824749616581983,10.440961420417022,3.822063701781488,g
-9.512700989247282,-1.6628018606989947,-4.364624999554353,-3.6302794267584217,-5.224906788349925,7.569098337927171,10.119021612665929,2.2342758658352735,g
-12.535485168123286,-5.001109514458841,-7.503287974621115,-6.243395572151085,-8.326888170432234,6.197302418000673,9.255013121655086,0.5574292815232431,g
-15.287610544103643,-8.025284957282269,-10.354395324625765,-8.60123478583336,-11.165384970539034,4.860394269997874,8.234990391574206,-1.158644272553026,g
-17.348582162820293,-10.182089034332307,-12.40257983090201,-10.316905915557205,-13.252566400697186,3.6991884407777578,7.193380398832133,-2.6971600161450517,g
-18.362044604578028,-11.055558666553406,-13.196234662479267,-11.030109914328985,-14.139822977922922,2.8336432676012606,6.112931291956947,-3.7227222215059212,g
-18.157714892577996,-10.550675830110961,-12.525803613956114,-10.571991369794546,-13.600379224575352,2.335907716630678,4.930675319199224,-3.9577403213253723,g
-16.7498291611578,-8.872806714564156,-10.474258141036483,-9.027197911816774,-11.694486154651461,2.236731414169115,3.627676842363268,-3.3445016669000323,g
-14.251871155258508,-6.336731008351304,-7.319172124310866,-6.661931737090361,-8.685742736126896,2.5568989468568524,2.2384154001091696,-2.076474975908097,g
-10.811805888186441,-3.173732501244552,-3.3772853081338496,-3.7790927414590234,-4.890552300549496,3.3122864995743995,0.7867200322848269,-0.47935787718410416,g
-6.6325499857045,0.5069925867814795,1.0848031552586437,-0.6004208985626931,-0.5822656999239548,4.486521653974509,-0.6577168016963351,1.1747636690276217,g
-2.0339238672059423,4.596793231860934,5.828885681720789,2.752171270867099,3.999194090583014,6.0094218011602765,-1.7408022900807256,2.783483705199529,g
2.549361345305507,8.847269125289603,10.577323688847622,6.177340124461226,8.586388498926876,7.750401841032064,-1.743354926064227,4.371008078965921,g
6.6797244292657805,12.859670879481147,14.996621525406471,9.49278422838907,12.862695250367352,9.510223083925894,0.02132091559512155,5.93075989353634,g
10.065364071271706,16.223214423362755,18.764754056938287,12.405147403387339,16.518103786662927,11.032933473071697,3.6045021167799383,7.303153280923155,g
12.621889476429063,18.685131981309294,21.66748434752504,14.584710804775156,19.341979431107298,12.076590140570612,8.237008254379825,8.202793700430615,g
14.39240665731142,20.21166819986999,23.640417001135937,15.790482254899846,21.2747489986913,12.50899420175281,12.755466685038307,8.369982806018397,g
15.389791286109883,20.897864882052666,24.720173799509315,15.955728425945107,22.3683302540776,12.33697912330257,16.226059886904554,7.721455928252455,g
15.490649377964905,20.81385734816515,24.946565885457456,15.18357155035378,22.67965981644626,11.642756404842334,18.316014879615913,6.394620082738188,g
14.477149808285409,19.925694805416295,24.303070164432977,13.669141112060899,22.18734164778665,10.503466941201157,19.29560633414439,4.669028627846191,g
12.211052583715496,18.155186627260274,22.75124703501657,11.605496538362132,20.812041699172696,8.967116149773867,19.702880866333892,2.826244705122245,g
8.806712671180472,15.511865135941889,20.32519406816826,9.130608256139546,18.528080086419088,7.078868838277256,19.769278150564833,1.0400583246651234,g
0.20309935682993938,8.41749081078861,13.59713190774832,3.3523241655119564,11.885052024922427,2.66629535383996,16.297253097065205,-2.1761505016819753,g
-4.197910733178105,4.572829580674221,9.793737419792617,0.34862022027965944,8.106676067047479,0.583193344158017,10.95900893349204,-3.5054939958348728,g
-8.472732312159348,0.903802833734767,5.953826565230421,-2.4200605303131737,4.368583145725209,-0.9986775573330174,3.32111969316437,-4.464466483406665,g
-8.472732312159348,0.903802833734767,5.95382656523042,-2.4200605303131746,4.368583145725209,-0.9986775573330171,3.3211196931643707,-4.464466483406664,g
-12.6680570434137,-2.3594324067234265,2.2053701600037696,-4.703214134175692,0.813486111442624,-1.8250022482315955,-5.054021248318611,-4.895191459381776,g
-16.754749177701573,-5.004312062261481,-1.3089759578802127,-6.338459041157925,-2.470089805513875,-1.8297060319015457,-12.011974511190619,-4.749502209652808,g
-20.50833819159636,-6.849864013986537,-4.407535302284444,-7.312694893302549,-5.38510438980429,-1.1509535262529067,-15.740316557615904,-4.152793811609208,g
-23.564056715940513,-7.793936514626283,-6.906716588259475,-7.754780906130743,-7.797804006181799,-0.06091582657351058,-15.58450159543889,-3.378580126160115,g
-25.590735058337305,-7.844337478383532,-8.677732699298094,-7.851971462877347,-9.557113660771636,1.1266116472356806,-12.347440948707497,-2.7372744879803,g
-26.4490283889507,-7.092969020974254,-9.6668788208584,-7.732839584917708,-10.538283747176559,2.144842766751971,-7.7806386111403,-2.429599102236817,g
-26.226436712466295,-5.649712387117564,-9.869210003290338,-7.3994520204411955,-10.679845892848395,2.8525442700578716,-3.4894880338673415,-2.4533869620172744,g
-25.146232310377684,-3.608200116944606,-9.304727036247794,-6.7743423653440065,-10.007418170182003,3.256081249891796,-0.0718031685011212,-2.6397148176312006,g
-23.447740134106716,-1.099887563793454,-8.052044769386868,-5.841173334081658,-8.659441342230538,3.4345838513372504,2.832298609383784,-2.8064001771292397,g
-21.338373196732533,1.6060350869934805,-6.322395478761576,-4.76474752884108,-6.907045015988696,3.422414409968659,5.765451548722426,-2.9164065758220232,g
-19.01855811275374,4.085961861870743,-4.475438513383856,-3.870025499311121,-5.116651334251404,3.159780922763076,8.728815169815043,-3.1155640440863044,g
-16.69482035808248,5.912174595134557,-2.8974731012764514,-3.4664593115764646,-3.619384428069813,2.550564840375292,11.033635757281651,-3.6179126707220197,g
-14.527687480770169,6.889675042015054,-1.7944762528673934,-3.638751649751544,-2.544960363808039,1.5637724070659749,11.694588702316512,-4.5247626425758005,g
-12.564083848444318,7.181567923573025,-1.0660355353330877,-4.168420113852691,-1.7512265420603192,0.301720131634973,10.071853543285286,-5.713140665872743,g
-10.745971860639132,7.1927926871394545,-0.38874594988531275,-4.6608884705780795,-0.932606235637159,-0.9996260460905683,6.4107773205344385,-6.8838229621546905,g
-9.02119695093722,7.281161377054448,0.5279868884251564,-4.799981925622999,0.14765109279416605,-2.051896473070502,1.8834142321863787,-7.748261073249369,g
-7.484917694869411,7.507258013409003,1.6933751782664253,-4.551848539860025,1.4570849239199248,-2.6605488452424257,-2.0288334802600025,-8.222136710574896,g
-6.439180991436393,7.600552781924487,2.7747877829321093,-4.1703137749590455,2.662889994276521,-2.8451424516370536,-4.391941420364136,-8.469324294964233,g
-6.300014645668825,7.155551646916142,3.2741820749804176,-4.001157070152671,3.2960972748669404,-2.820457298354209,-5.205260751493447,-8.749483722785197,g
-7.383081332742561,5.914527045591098,2.8240053652301476,-4.236759904632117,3.0108989416038296,-2.839047428555708,-5.084056350065393,-9.186964340492313,g
-9.70161022419999,3.9446534896525107,1.399228896073748,-4.8069463386452,1.7727720122498265,-3.031011865077413,-4.7027522113805125,-9.64483300610349,g
-12.927471828570438,1.5978501706912582,-0.6985146286739397,-5.474762217351758,-0.14860409843134448,-3.360479131895466,-4.52299522847253,-9.79507672050835,g
-12.766792282426042,-0.706260616215029,-3.0612687599114428,-6.043479784313853,-2.370904477258221,-3.68593372980519,-4.8213534226199055,-9.324489017312713,g
-12.536959125999257,-2.7178953939126678,-5.430617970409766,-6.512092021160022,-4.635228341437738,-3.8459673516457733,-5.724707049656663,-8.137682888479343,g
-12.30689193804594,-4.461083137298087,-7.810808627651295,-7.076031308847189,-6.925660868752752,-3.7358778427158086,-7.140233756749517,-6.440864000051365,g
-15.507351883098178,-6.152646476280157,-10.378609269823029,-7.983958648877282,-9.403423710219734,-3.368376450503747,-8.701163743896227,-4.6615795390923065,g
-18.54570526334164,-7.999900725679602,-13.268635538376078,-9.349390386528833,-12.210190005110901,-2.8799801236629547,-9.837209025048164,-3.2459608942918963,g
-21.29222460932359,-10.006904084110626,-16.38551275209482,-11.043233773253327,-15.275693488357977,-2.4556920566127376,-9.986574488267191,-2.452184848684156,g
-23.42499496163483,-11.919968301949705,-19.375583028115912,-12.74652971687838,-18.26897614237391,-2.226382573175125,-8.912234286602757,-2.269477388177211,g
-24.593195413336936,-13.364433627314554,-21.789233921148906,-14.131735398559433,-20.744608540375957,-2.224530873142522,-6.948546372691112,-2.5011793673171616,g
-24.65514182368373,-14.08379648256828,-23.325652828920017,-15.038210612338597,-22.38728350642574,-2.410537023359537,-4.88514885043732,-2.928248637072994,g
-10.35485429644601,-11.791269514351198,-4.61923061626859,-9.53432652010182,-6.164162744160134,-12.505838586777958,-8.61380450421469,-14.011712753204396,b
-9.50611358634051,-10.623385754766598,-4.444588373906863,-9.328113787844055,-5.938839099952948,-12.922396124578967,-10.815204283814868,-15.81884293190203,b
-8.469127213895913,-9.199561851400219,-4.085979217383689,-8.832002752599658,-5.491008816623193,-12.89834705735745,-12.864207625019137,-16.920960333074525,b
-7.301538295990892,-7.775787947151753,-3.476944415947087,-8.014799694218464,-4.749521461460056,-12.517193394142208,-14.96629256264329,-17.23561705631775,b
-6.072799376556438,-6.514819960127516,-2.572971709371818,-6.832505858465884,-3.669591053588712,-11.886747191886505,-17.059836493431092,-16.719646680435908,b
-4.876717360339189,-5.471056527828189,-1.4463893917743615,-5.334678617184464,-2.329821980045211,-11.071929312537282,-18.514686261185382,-15.390593515192213,b
-3.8319490134495893,-4.666362896522331,-0.31146480160052786,-3.7229177256530335,-0.9498498492002719,-10.110776362943465,-18.486178499600577,-13.34615223827575,b
-3.0647102324971107,-4.179661282031562,0.5491125228551892,-2.293117356464253,0.1883890603680051,-9.088078592920386,-16.7044483340105,-13.561597410700315,b
-2.6921076853186516,-4.160241430907232,0.9068727707821982,-1.2956400913273327,0.8560214617184478,-8.15971829009221,-13.85595698531684,-13.544452816882352,b
-2.8164569494710685,-4.735440999798582,0.6788733158931582,-0.8269844772778626,0.952688447458334,-7.483062342853676,-11.095811686549695,-13.354704858276836,b
-3.515647032585382,-5.878120710169207,-0.06263403775642899,-0.8334560329837946,0.5073851185002841,-7.130697903420736,-9.187418598324927,-10.52828952112154,b
-4.811759392978628,-7.351730880742157,-1.1550080391476143,-1.1970271812028566,-0.3748460561767096,-7.07351884316396,-8.103451051481883,-8.036896260005273,b
-6.624505401072604,-8.799726835602545,-2.4314749283126473,-1.8100290667121015,-1.5699049206234093,-7.222258551390949,-7.352901399958651,-6.014794056499591,b
-8.740143707087691,-9.923851442600148,-3.769248853761449,-2.5866158901366245,-2.955856208850874,-7.467838304181592,-6.630411929074205,-4.521718544537879,b
-10.83168095104498,-10.61768126158715,-5.0794807995487625,-3.4372916279578476,-4.401508075055011,-7.70217099546417,-6.221481336910474,-3.5544233301149646,b
-12.546715766551937,-10.962851647370712,-6.271936919066918,-4.259273005152904,-5.759989449340006,-7.831464864841972,-6.815493974696932,-3.0888161487041943,b
-13.632311838642357,-11.106728235202588,-7.240135921436497,-4.962089450615471,-6.891458246201212,-7.77795719260109,-8.782432480846031,-3.12769619568937,b
-14.017116646485345,-11.11852308240122,-7.874780801835516,-5.503060598358035,-7.692045909255303,-7.473573890892773,-11.486949814828263,-3.732878576752321,b
-13.77926985786896,-10.92065295487242,-8.0766119502937,-5.8888288237585495,-8.088637926217256,-6.881594464268815,-13.400199683174444,-5.024827046752646,b
-13.01627694038837,-10.335679236621392,-7.750143668071074,-6.121712061301322,-7.999425022886602,-6.053529595216129,-13.128661351934488,-7.125904061211213,b
-11.72591222505121,-9.21216686725397,-6.795746863241886,-6.126417019243261,-7.307497620809402,-5.1523072495423365,-10.489265640033038,-10.048948605166682,b
-9.805317998816923,-7.5345293095515675,-5.127115684335399,-5.734308425734295,-5.887470977662823,-4.380558927771008,-6.616884586348336,-10.39443949198853,b
-7.17379450005275,-5.431784201057816,-2.715182296891061,-4.766922375862947,-3.673950101200866,-3.8637173497935193,-3.059921253217372,-10.668712905409215,b
-3.9195349810330726,-3.08791129207474,0.36617563583591617,-3.162970724575497,-0.726048182554084,-3.5974871310011927,-0.7466401244924313,-10.778254640190445,b
-0.35086734625086624,-0.6467338137472618,3.9189741680616628,-1.0382795893589556,2.7493329523950267,-3.492870316774392,0.39287201294951474,-10.675655983259425,b
3.094791633756421,1.7983009421326313,7.6378964886860645,1.3736283424386948,6.426043219640368,-3.4567340689376316,1.0793065617249105,-12.669297695334787,b
6.023949515913138,4.131934991574284,11.16285299811266,3.841461505112023,9.927722140556055,-3.449157470947943,1.9902394557307272,-13.624950180775077,b
8.217736392768547,6.147337744414395,14.148119221065528,6.211359329076984,12.908652562906434,-3.5044882012923706,3.163569456105388,-13.455260086996782,b
9.630440728978627,7.5588875379857825,16.319221625380216,8.386287706687813,15.110909904083684,-3.7051836417060526,3.9038018496892013,-12.080903125234771,b
10.278419387822016,8.10558308104433,17.49980556433391,10.246064222111254,16.37960069573652,-4.102263117069095,3.3359947441549567,-9.457160760099915,b
