Fz,C3,Cz,C4,Pz,Po7,Oz,Po8,Inst
8.724328670373811,9.182499430757826,6.039152622579344,5.27379923437311,5.752533941225848,3.0455474547271004,6.547047830391061,7.756178202991597,g
6.3977245787483055,7.614055978167102,3.4237935855046175,10.591060312402885,2.850030938015909,2.8702716794219176,6.287482091392742,9.636580249566814,g
3.580645368290385,5.400975693173269,0.3817129524620496,13.468053411208862,-0.5004813428286994,2.242307335249712,5.501714580662961,10.741310929677779,g
0.3927418660215352,2.5211559767878193,-2.9926181265178826,15.594313177944139,-4.257280130136957,1.23559721745458,4.133773118822292,10.935972904723556,g
-2.870564645256755,-0.8905688279038266,-6.512422121592442,18.030834156755848,-8.241726775229733,-0.08799486161303624,2.149379457559747,10.14461899915256,g
-5.796556102072622,-4.511554882115641,-9.877529182632331,20.09295319709369,-12.069126865078612,-1.6606234435722853,-0.37838638031192795,8.425508729672995,g
-9.462190271558223,-10.799301464817368,-14.933596411290571,16.318307457664343,-17.56598867266954,-5.032814496070615,-5.929925999162132,3.241361888472942,g
-10.181097990058696,-12.926997877055317,-16.30183057940893,9.843662354582069,-18.843663498197916,-6.481294896244106,-8.151565580009185,0.4348176639141014,g
-10.394531142400986,-14.27238383358725,-16.874735562827077,2.8065226467014845,-19.2299416297394,-7.6037507722325275,-9.618058040884353,-2.2302222064234494,g
-10.394531142400986,-14.272383833587247,-16.874735562827077,2.8065226467014845,-19.229941629739404,-7.603750772232525,-9.618058040884353,-2.2302222064234494,g
-10.222923557889173,-14.851439807033435,-16.669355509431604,-2.244152281255477,-18.88709758425913,-8.384463465989688,-10.310288282511737,-4.69441041567738,g
-9.613477190918681,-14.637632139575754,-15.659755522736958,-4.146202615818464,-17.880953503755002,-8.86502841249622,-10.34395192342159,-6.894717713130449,g
-8.39284883974354,-13.527602873955313,-13.800700466718453,-3.9369660425841984,-16.11335223026155,-9.087155084042136,-9.771476971524182,-8.636697102312251,g
-6.425252026738875,-11.400336582015475,-11.10239528890915,-4.148199265997621,-13.41017379577286,-9.040523383285429,-8.454799521798915,-9.574436465659277,g
-3.759750948048631,-8.229390660027512,-7.6897108614208465,-6.879922639554499,-9.7336444857283,-8.636025727945416,-6.1461303646031125,-9.348082600329082,g
-0.6552900776894187,-4.169183151567205,-3.7937744231512527,-12.11153948313601,-5.334528739221961,-7.742659924316352,-2.744645052741162,-7.817796450231015,g
2.5309873608888274,0.44046788631653405,0.3156224382273237,-17.74556183478307,-0.6858045962199469,-6.2954922729399465,1.4713270636065705,-5.224180769456697,g
5.498380683709021,5.149212330572693,4.397655412573717,-21.35791686927427,3.739933456967698,-4.39325859358932,5.84988001407852,-2.112305564160676,g
8.087591544576808,9.507701942204418,8.258391047264013,-22.058963423978515,7.64450970881028,-2.2791991625533994,9.648137490682553,0.9655532445785419,g
10.259297575422845,13.167414815826229,11.724908968132818,-20.914260398901725,10.9211059783084,-0.2055896053772921,12.405827278015227,3.744794574208059,g
12.013119211855857,15.930557221585044,14.62035437258049,-19.759764525713816,13.566891324041089,1.6970211523699053,14.136819592713428,6.299243452567256,g
13.31582426593352,17.729783203094463,16.769977615001274,-19.4595269388528,15.573649170238733,3.434042941844891,15.194976779976148,8.812845141029005,g
14.079130396897327,18.552871945272116,18.028272971170647,-18.923250730025668,16.839239414222597,5.043966366200154,15.917774393584192,11.269372460842298,g
14.190315857448942,18.36742492206592,18.300595740213346,-15.70465900562146,17.154204743906625,6.464010543716936,16.323108328744564,13.313697568092746,g
13.570767147251436,17.10525659576449,17.54854460133785,-7.937291301470803,16.30946673857448,7.46347332380145,16.09417691124495,14.401284280083235,g
12.224610670461454,14.721675802150145,15.789753453962595,3.8449727062089183,14.259481540035333,7.710350327674678,14.861186839377059,14.13895484369102,g
10.253868977757115,11.289555451175357,13.107574269122267,16.654949215779425,11.193473709186128,6.9564320983930115,12.555075342653499,12.568455489099616,g
7.848234124993274,7.065950466378842,9.673475858566718,26.957861206824287,7.461438518873406,5.216726096147496,9.555026866531595,10.166760623838593,g
5.266960406253576,2.4839883974584205,5.7634995823637905,32.90778028995145,3.4498769349318836,2.7883672933862473,6.515403829246449,7.549037715659727,g
2.8063481023156016,-1.9428816784943757,1.73712636544825,35.09580790468429,-0.4992488841371216,0.07933828677769039,4.000526403945003,5.105901204452033,g
0.7361384191617892,-5.771232050372731,-2.0345268894459165,35.49585464180542,-4.131651709523149,-2.6114762550501447,2.191202313566211,2.8579889907432516,g
-0.7751861217025532,-8.75648180704319,-5.258254013465747,35.70455056203251,-7.3006719074976845,-5.191693177079988,0.8650932111525916,0.6126528516596631,g
-1.6912928736669606,-10.883152733569148,-7.7680717073295025,35.747395667907384,-9.9266166063973,-7.707997308907619,-0.3511653305226064,-1.7451185222259906,g
-2.069975685618455,-12.281357167406052,-9.510458469400751,34.12541558516009,-11.907254957706018,-10.200568450747445,-1.6554621856842224,-4.074163770944922,g
-1.997147320896761,-13.094607757785672,-10.501313348531394,29.03678501308961,-13.092003979359223,-12.58941288320886,-2.909820331954942,-6.031842090795396,g
-1.5527346900379484,-13.392852294174867,-10.806699630522472,19.92856503194689,-13.385521389834599,-14.660473652819197,-3.7497501534368425,-7.294673603950159,g
-0.8255641990361463,-13.184309711874011,-10.559437329481357,8.152308790048735,-12.881213536547184,-16.16513435590911,-3.8638577956463074,-7.768561918919822,g
0.04980988050150188,-12.50926425309168,-9.978895147732125,-3.8207958312774055,-11.881916436155233,-16.975310520562076,-3.2326271572621232,-7.63550242584491,g
0.8728929588521307,-11.540761763990528,-9.353720357112998,-13.883194682218484,-10.795400106616512,-17.17676834327465,-2.164256022295658,-7.2146505965709675,g
1.4058665739550273,-10.600136172595823,-8.973648640466742,-21.240599568061604,-9.993628617457835,-17.01749005963992,-1.1174970660652104,-6.761086763633074,g
1.4576839120945844,-10.044942800539978,-9.037513649724206,-26.31398095484753,-9.699617770207439,-16.752366015420876,-0.44266879861670105,-6.3635464757528,g
0.9762443359828039,-10.089986757927624,-9.596171790614468,-29.943530951256207,-9.9362617541892,-16.51145353613331,-0.2154705848596344,-5.996208501896397,g
0.0682880992647303,-10.694274739073446,-10.575927880172161,-32.46803770733524,-10.584337156815574,-16.280453498210015,-0.26285225215777286,-5.638637985566859,g
-1.0809196088572008,-11.603743964319598,-11.862073255830378,-33.219414169990195,-11.533327437078098,-15.984874655186042,-0.3380649629733331,-5.341572213947856,g
-2.318730672171585,-12.511022461634933,-13.364262850886536,-30.952221328653263,-12.780239318575529,-15.61080374600229,-0.2969976971833673,-5.194884769828734,g
-3.573797891008291,-13.205796820048537,-15.008661207977116,-25.180400701085482,-14.35137367471395,-15.280280878068982,-0.14451897670215513,-5.243065899367595,g
-4.826598079133737,-13.620429193311503,-16.68713228029956,-17.335979512301993,-16.135174891966123,-15.210317545347532,0.057615167709757255,-5.419273194138894,g
-6.060752483895072,-13.775364343801177,-18.241759870318518,-10.406416422566519,-17.843772706829967,-15.556378341929081,0.3118715988765297,-5.546982251217559,g
-7.244440751107675,-13.6990608605195,-19.52038386075144,-7.037765929871891,-19.172171737551615,-16.26027681241769,0.7151345700950018,-5.419785175066574,g
-8.339579959905612,-13.394586729530715,-20.459956666369976,-7.703686042332211,-19.996511156957546,-17.056476288396766,1.373015024361992,-4.919334346288493,g
-9.315591023612743,-12.870796636762478,-21.123001521492153,-10.555315090918072,-20.432672780342784,-17.654976670675545,2.280847309419787,-4.092064471071948,g
-10.154839826859849,-12.195541575791818,-21.65021694939633,-13.016526141834921,-20.732071254220642,-17.94246296818432,3.2825335193852454,-3.1255843716381504,g
-11.370542459274887,-10.973296348889244,-22.671444756330043,-13.699455912822776,-21.58001609294212,-18.104010147378553,4.725312200148386,-1.589367220247015,g
-11.70073469358725,-10.710927088796321,-23.110410549525294,-14.956971492303424,-21.99756979546425,-18.26903716605316,4.9951865047782755,-1.185924256992951,g
-11.821336709246882,-10.773937981673374,-23.394290609138668,-19.012236830810252,-22.174711364218957,-18.425411578513064,5.046653429639242,-0.9542422720301718,g
-11.821336709246884,-10.773937981673374,-23.394290609138668,-19.012236830810252,-22.174711364218957,-18.425411578513067,5.046653429639242,-0.9542422720301719,g
-11.755161487995405,-11.16670889168507,-23.515380787327874,-24.955612769090493,-22.111472293322702,-18.356447300260676,4.931152424913153,-0.8005839602643153,g
-11.563047186139931,-11.871329644164701,-23.551422151212872,-29.758930664941165,-22.028012310033297,-17.91645289452602,4.5826964079787,-0.700925534786441,g
-11.322886856575824,-12.848702456111724,-23.604142621194164,-30.415437027487076,-22.18071360881823,-17.19390029037071,3.8782675635878716,-0.7290853975911253,g
-11.119632001185572,-14.029144954601488,-23.733574404157412,-26.174559527257845,-22.652160711831737,-16.495638381296384,2.7926564636762725,-1.000546387924435,g
-11.051952226379719,-15.318523898854327,-23.944084999821033,-19.017600329199002,-23.319724857710067,-16.142079744170122,1.4987040797762037,-1.5748743013998634,g
-11.223430372090254,-16.617994390287926,-24.21411634508752,-12.231671301616116,-23.984276088970635,-16.24053280727388,0.3088414213621993,-2.3958480327111804,g
-11.701381112086239,-17.835460865172557,-24.523649565611684,-8.424180303703,-24.499377992834546,-16.626825753622228,-0.5020427303669688,-3.307482977230245,g
-12.474530739617972,-18.880383330237635,-24.852833259168758,-8.253385412473781,-24.819602994371945,-17.005991974782933,-0.8522180129968644,-4.1199770978970545,g
-13.44997584343065,-19.65687683919574,-25.16443080522651,-10.314504235188268,-24.99283180218523,-17.16016261336612,-0.8739402195143283,-4.683194943443531,g
-14.49026488157815,-20.074682313673392,-25.39715760342661,-12.118687350838334,-25.11305652969977,-17.074191111315358,-0.7959130267527398,-4.942809465100495,g
-15.4604097123661,-20.081681497426455,-25.48166092769081,-11.746677521620345,-25.234465310279383,-16.91631316882556,-0.7788417879612738,-4.955666041745437,g
-16.26001318809843,-19.69813791024665,-25.366872070691358,-9.18835747955794,-25.30457734703751,-16.89860194629993,-0.8170721770493005,-4.8406314776749495,g
-16.829775986945045,-19.01863777661734,-25.031674020253774,-6.320934907481503,-25.184779420771992,-17.105968898231176,-0.7651730987487352,-4.682017054979126,g
-17.129967406182057,-18.163104496958887,-24.467577655896,-5.533713466960611,-24.72691646853793,-17.416454778403313,-0.45647133493985964,-4.455140014723604,g
-17.10874305308108,-17.204090467433872,-23.649317022458067,-8.188366789447658,-23.81750568817957,-17.58221593478663,0.18354754667148127,-4.0355698368628925,g
-16.699667255425844,-16.131998495468338,-22.53214299308258,-14.037208408368713,-22.385455412240447,-17.40222109087322,1.1090636355523127,-3.285801537682704,g
-15.867808803003228,-14.89536569861708,-21.094025911967115,-21.667450324576603,-20.440708093784423,-16.831613757551334,2.210260280299862,-2.1586724932234826,g
-14.669148507197619,-13.484502209221048,-19.390651763698603,-29.351253186313397,-18.133726525861242,-15.947392587953534,3.3892234481644694,-0.7540896215334583,g
-13.26716586965058,-11.985727226544693,-17.56795578653041,-35.783368923577704,-15.737937211544804,-14.836839431370795,4.596119174799368,0.7079777109214613,g
-11.891262211957365,-10.562708593476561,-15.81201426651485,-40.43376878817806,-13.531509498912138,-13.525076214333271,5.813447342614567,1.9929218595900557,g
-10.766036826809529,-9.383760297929566,-14.271049321290192,-43.37388656029831,-11.684295001078626,-11.987921006369225,7.011153231829536,2.9705784258092227,g
-10.039975796005539,-8.546994032772702,-13.002022934394887,-44.76715842076412,-10.237620597145295,-10.217676822493052,8.108213078269868,3.6535730850011268,g
-9.729751577719734,-8.044755871732663,-11.969114862020538,-44.54934772714009,-9.147251442755662,-8.28656765469573,8.976350867971748,4.120493770062769,g
-9.70988355182807,-7.7821197355669565,-11.088832735464567,-42.557277717242755,-8.33427037206725,-6.359696822320657,9.495249869329793,4.397848084638634,g
-9.779461812424387,-7.638850208832514,-10.29643543929205,-38.742012937702675,-7.746634190412687,-4.637407976544056,9.617162291409178,4.409942119254448,g
-9.783954011862306,-7.540591194210322,-9.59697330802068,-33.09076351972083,-7.421271954366094,-3.268621334864877,9.377094136795183,4.029678092014948,g
-9.707609165075109,-7.494474512778547,-9.067066366850664,-25.53352151281605,-7.472400089259087,-2.3172570384328024,8.835798966297775,3.1740300750565895,g
-9.663350598477276,-7.564076375586606,-8.80197676981868,-16.304327611172674,-7.9768771703194306,-1.8074055628244152,8.0177797974744,1.8747019618756373,g
-9.78764352663355,-7.799151195265528,-8.84069314541863,-6.5032593750959915,-8.85764305318716,-1.7711238131954068,6.916191286863301,0.2913664842931206,g
-10.114420539850446,-8.164077315292818,-9.114911432990795,1.946914700122298,-9.88024614337436,-2.218064206780439,5.569188756515939,-1.335626984079616,g
-10.507088266719833,-8.50824899137392,-9.447877953712203,7.184245518393773,-10.746232547589084,-3.0558928009146915,4.140480353904795,-2.7709057798328955,g
-10.692396732794823,-8.601305423690636,-9.601599914848205,8.392713298756506,-11.188429034822105,-4.063396977123566,2.9222452106522048,-3.8554041772652665,g
-10.38894568959505,-8.226255668753854,-9.354522303126087,6.059390590875346,-11.032022844326981,-4.958099957936484,2.225708641919374,-4.5178607341191395,g
-9.462530083592451,-7.2876376964224905,-8.58078274442844,1.4476449070380275,-10.237714600549708,-5.501036875840648,2.2073254882100715,-4.743077542888915,g
-8.004721549757736,-5.868789776292185,-7.294064088136929,-4.166993806337994,-8.90587830660177,-5.565909169715459,2.7494255971553025,-4.555575826250841,g
-6.270554208922036,-4.192034948901407,-5.627868461401682,-9.9830203054234,-7.208610189609386,-5.147974318536739,3.5064627356899836,-4.034734637543919,g
-4.512118280604851,-2.497168114325148,-3.7559620749165292,-15.671919327690674,-5.292270749743944,-4.319912101970588,4.115875485796371,-3.3125247691461737,g
-2.821787185783017,-0.9122952557491597,-1.794761654434725,-21.00370473194357,-3.23170546280868,-3.1585935978270725,4.433672196466355,-2.5209720459486453,g
-1.0903283992017834,0.5994355755061863,0.2513425333882006,-25.514503226874137,-1.04653127013199,-1.694834300066514,4.617732729101813,-1.7331566217605434,g
0.8906526492556897,2.1809924856155485,2.4578539228409895,-28.599233900590075,1.2672295671734362,0.06690893465112815,4.992386380492568,-0.9628980655598747,g
3.2449785490951575,3.9501193048844963,4.874239625503385,-29.889173268295046,3.6984539045256115,2.082802367242442,5.795996609661385,-0.22126272741336397,g
5.875555569288124,5.892373684881389,7.424389447508136,-29.40140388951129,6.163619132578122,4.237220636356768,7.00068238783229,0.4352617018879168,g
10.790905675565474,9.707083061423734,12.104810304956597,-23.913809622705053,10.492351339327737,8.381949830532383,9.481515518865008,1.1605465051335946,g
12.658712347809432,11.360170748984142,13.92037896750559,-19.58644860741897,12.124456892843956,10.171385015674176,10.300549345712502,1.2024530273270224,g
14.193094880887703,12.878538373073402,15.39441656284032,-15.028254280554417,13.464858099348863,11.726484334036467,10.896404118227219,1.179587603692744,g
14.193094880887703,12.878538373073402,15.394416562840316,-15.028254280554417,13.464858099348863,11.726484334036467,10.896404118227219,1.179587603692744,g
15.557946743323736,14.325623885134345,16.606257461237462,-10.759941201710518,14.581923486345318,13.064375844605085,11.492498992132179,1.2532299211676805,g
16.798166825001445,15.64781264811771,17.53830872571357,-6.698414401734489,15.39079372515512,14.202755827928002,12.209160457319289,1.4800198528237234,g
17.78158291655513,16.642078107305817,18.03082186641685,-2.2764133592751747,15.66942088846547,15.107409256998299,12.917111290223701,1.7413129261514189,g
18.29864822833826,17.051797383591182,17.867989429023073,2.9441525609653594,15.202614471771005,15.678816135258543,13.274758350816763,1.8079522080652612,g
18.223524221016312,16.724806878084532,16.93219936045395,8.772734087856357,13.925573597988029,15.811491002269156,12.925195930452986,1.4971211630431356,g
17.60884673002051,15.720374946560884,15.31224583091814,14.370436094863795,11.987427311966133,15.47741202221951,11.722466769451682,0.7905676264218646,g
16.647067709179243,14.285742012359146,13.28293368484878,18.645077636460933,9.711876933603678,14.756776516950882,9.842623180013344,-0.17109077755751373,g
15.5373438401048,12.718961544588776,11.168641475847329,20.873570256131416,7.455813299123274,13.802659822438685,7.71516620128363,-1.1842474585780338,g
14.37800647785869,11.224065428973468,9.195118799992517,21.22971533102274,5.440682386726155,12.78261597800186,5.826366217000624,-2.073725845767498,g
13.17922164060129,9.865279970988848,7.4396305631915425,20.70666030506684,3.6993915404987434,11.827447523670525,4.5174988367875795,-2.7219665486188607,g
11.96328499992472,8.632392789639365,5.897060410022829,20.290646896129466,2.1889257315519473,10.995274876082409,3.8850048608856262,-3.046844668651404,g
10.826813090990736,7.534710915226206,4.580409349382904,20.077200187187792,0.9344024715346848,10.273398560486797,3.8123751417185217,-2.975373040493857,g
9.894979899253894,6.639242023172324,3.565881356651758,19.20647376847991,0.05000028602871938,9.636202815220571,4.089276597883506,-2.4529544893109763,g
9.232153506632162,6.041460713288731,2.9639313584526605,16.643029702410576,-0.34474402707959284,9.120614810845519,4.543390742310602,-1.4880910461368941,g
8.815797658183753,5.812768021328631,2.8569499729944554,12.052826480473517,-0.19181052122347486,8.846004046599523,5.12120066866553,-0.18772308979261343,g
8.591194404526423,5.963820159572741,3.2450649188312104,6.210558622268209,0.48546161695154283,8.953792933539482,5.883923536947877,1.2636000982382325,g
8.530502610940575,6.432509740738699,4.019012124449068,0.8794698053666533,1.5541200249009082,9.512159428481747,6.921658386806686,2.669784693901346,g
8.628588053709842,7.0911046067586465,4.97120703516838,-1.828533358801997,2.7487903631150474,10.443592246126899,8.228618809993993,3.868982082947452,g
8.846704166279007,7.769648514914989,5.851770609977654,-0.5517439034478837,3.73715753885199,11.510500325321825,9.613591594844406,4.71853808531432,g
9.069895150952247,8.296183648525846,6.454857854716008,4.379421851908653,4.2685110354155675,12.38355729123143,10.717983865852187,5.058677300376237,g
9.134557367953603,8.55116159744212,6.695597086588824,11.06721874344257,4.286176108064164,12.78620876054006,11.16092287444501,4.726195933702225,g
8.92505322882163,8.520189634260893,6.635330478910011,17.30634923345834,3.9250995777048274,12.632526400566192,10.745820415740608,3.6332242766226615,g
8.468967550075018,8.31049061262166,6.435948275247476,21.87033452173852,3.4291674240139804,12.04386970653285,9.601485907742127,1.8544526773274606,g
7.935340317747674,8.096824277953758,6.258928786868011,24.754478931691725,3.0381848537153298,11.224699112683815,8.145322247964314,-0.34812317088638667,g
7.5067728402480585,8.005175457332586,6.158569063196247,26.504492455092986,2.857559900463018,10.309552477140757,6.85543695631331,-2.597492451714632,g
7.21744283876591,8.00488483329662,6.035051396847448,27.53415376575483,2.767288834527459,9.303654926742905,5.976228056286354,-4.550265344765732,g
6.90198923481618,7.898732620865475,5.688197612430982,27.931719421159688,2.476949726837731,8.13232921326578,5.363898614139452,-6.03965752043773,g
6.31231529802337,7.439630954574736,4.948030059979558,27.578629913980183,1.7330948343574029,6.733478358361014,4.6121915565122205,-7.103570717036375,g
5.31180693984971,6.503880700476287,3.7996922004921627,26.303816142962575,0.5192643568524338,5.134453214816024,3.3935554634411043,-7.857791241747442,g
3.9936970182762757,5.1981894542533995,2.418981667663593,23.97413134350007,-0.9136536696427285,3.480772940202982,1.761841518097705,-8.313342785667864,g
2.6352338242818427,3.816254749943321,1.090849507707408,20.476741688928467,-2.1880215226950597,1.9938799629822461,0.16982275909494876,-8.30627759093657,g
1.5187082029029864,2.664514257912658,0.054259535802813064,15.703986987866818,-3.003156787454756,0.8717460234994648,-0.8254963764755839,-7.6167050092509445,g
0.7431564066845207,1.875871844445668,-0.6339316217157496,9.838329907449927,-3.304996496647232,0.20006325284053514,-0.946066781384198,-6.1847202963090036,g
0.1704935491968575,1.3519834287126593,-1.1197055350952418,3.8603265813944674,-3.333887519233437,-0.06650387643997052,-0.3691507278051397,-4.244002405086657,g
-0.43476101389651445,0.8855010078368049,-1.6256223460631236,-0.49763682680598703,-3.469742757613163,-0.06366630792649422,0.4346883831201479,-2.253762404441962,g
-1.1725872305021525,0.3671338823352498,-2.260081009063103,-1.912683231646276,-3.9289656451830366,0.04003231269816106,1.0671435901497364,-0.6568288414155841,g
-1.8811012504561717,-0.09420498340362364,-2.9130571755100187,-0.9592642992045171,-4.555536101918543,0.11046981518766645,1.4812701026268134,0.37599937199813177,g
-2.2353473089270706,-0.23523776512326827,-3.3268369004797194,-0.30387589874859194,-4.915720213143894,0.12786148806274275,1.9661963683188695,1.026318240783715,g
-1.9925057446074252,0.17454858833267872,-3.283068834121689,-2.9821462490258677,-4.623134105601588,0.22848242685635065,2.874718800685497,1.6595506115028886,g
-1.1855463310045784,1.1738038351475506,-2.757182399691757,-9.988431032915042,-3.614174087402654,0.6396536864874374,4.325500639233354,2.5287735617962928,g
-0.12377699347723725,2.5860500061907983,-1.9316570125337003,-19.167714336772626,-2.181118747450476,1.5268808872912325,6.101285868884953,3.584387706368841,g
0.7904852953891395,4.12716444040638,-1.07299842449806,-26.436869418163997,-0.7858516672962186,2.868853893222383,7.788189449055254,4.5366167983493995,g
1.4179239446979868,6.740070602162997,0.15479898753022275,-25.579966332116115,0.7294189994563812,6.016987801954138,9.66609527579661,5.230279278800536,g
1.361255640302304,7.656648718200371,0.5779421464824557,-20.41352841807646,0.9784942845906732,7.341749110784862,9.797238771514774,5.112677029209609,g
1.3222069534863081,8.257860083864973,0.9360079023860017,-16.436722914852854,1.1837761832352658,8.377739122840643,9.579031329779355,5.017758698748898,g
1.3222069534863083,8.257860083864973,0.9360079023860017,-16.436722914852854,1.183776183235266,8.37773912284064,9.579031329779355,5.017758698748898,g
1.282825006496339,8.416988303936247,1.112776718931579,-14.417543964841306,1.3320520244308491,9.17992624114375,9.105506304377938,5.0559563074504235,g
1.0156529660939873,7.955818843157472,0.8740510302638306,-12.042174552195778,1.1328415410458197,9.783512923022306,8.347793689583039,5.080112230804471,g
0.26530912334718443,6.750170718080996,0.016586749103377187,-6.318730979907469,0.24632990378192066,10.093396528593399,7.214973018959649,4.7932338284587255,g
-1.048835375126568,4.823440681430283,-1.4916021251720117,3.391890568698153,-1.4526797102352458,9.90457678330306,5.666905488691738,3.9836454025100068,g
-2.760624861196118,2.364775924640482,-3.4806290576235455,14.416449069776897,-3.786158622010219,9.051446011803872,3.795627534279872,2.7023413780099865,g
-4.543370761233637,-0.32801583374139,-5.66103513619778,22.521124609499147,-6.363050422870712,7.557086580292834,1.8306437570945906,1.247720093314835,g
-6.0770137274375005,-2.9436409742981944,-7.751742778323285,24.784429353715517,-8.744773375990821,5.657761286138186,0.07451601743755987,-0.013019399806386556,g
-7.195000568861927,-5.2512423023236625,-9.5806884380647,21.427557873141474,-10.619435395540245,3.6981944891536593,-1.1982139690563354,-0.8365239114661828,g
-7.936563082084449,-7.15798235316552,-11.11328811348867,15.417481614979774,-11.924673788087917,1.9854357450260327,-1.8407182137004383,-1.1845872948677267,g
-8.480552792888624,-8.70268584528284,-12.401617141799697,10.239269562045749,-12.826740388278292,0.6834476357482641,-1.8915317042198805,-1.1764116825657784,g
-9.006070893812723,-9.98688083087791,-13.49176928249788,7.549323541452035,-13.545112419812085,-0.21300617357680282,-1.5531060614750054,-0.9720059436637414,g
-9.57431035590971,-11.085163678902221,-14.35638463036471,6.539926773163934,-14.16894578255849,-0.8194528215189912,-1.0850899457226864,-0.6635150448052259,g
-10.103811654765774,-11.991071477893312,-14.900504439046696,5.355171818649225,-14.619578137427004,-1.2547707315322367,-0.6594591156097067,-0.23513955964053088,g
-10.435308658070326,-12.627051437394272,-15.030010855780713,3.023545399734008,-14.746735834868835,-1.5646436306127638,-0.26035463625428096,0.38973466224136627,g
-10.42739426891852,-12.90331721147509,-14.724623047062963,0.10382028504374859,-14.437388992947671,-1.728896991581086,0.30330686026053755,1.2586685001206677,g
-10.025040294855602,-12.782739406658683,-14.059025082792104,-2.184818426276132,-13.673879699160693,-1.72090900550544,1.2649619939413372,2.3346635235419306,g
-9.271055318061396,-12.308732091485032,-13.157266431491294,-3.118687116917133,-12.548103588146883,-1.5463931602635879,2.7165650817099243,3.512925697670128,g
-8.261394594046452,-11.57721320583591,-12.113978147795947,-2.8747217159067677,-11.220403385921243,-1.2388254155053704,4.496351254643012,4.68168531013479,g
-7.078813844619245,-10.671652603154497,-10.939938221257519,-2.2449665109216,-9.81638895695529,-0.8419884915824107,6.251569478254041,5.779740443447196,g
-5.756637420647097,-9.609039117778384,-9.571169841645027,-2.1785685022360775,-8.338787272445753,-0.39390874939035125,7.6651133490314605,6.827153969223261,g
-4.2961522326339505,-8.339651889003637,-7.931118059619704,-3.3572364620288475,-6.690960759026025,0.10093742578317273,8.690420500294017,7.917199233402046,g
-2.7084529174817744,-6.804870678433737,-5.99622779171876,-5.839568685753076,-4.7883044638415715,0.6953187237822854,9.598104157686631,9.157875570379643,g
-1.0347207830752738,-5.014078786227257,-3.8208418507971755,-8.982342851639267,-2.638140682883401,1.4738720694277554,10.768484735994063,10.583362617694025,g
0.6663796942676093,-3.086019059134744,-1.5168576886092249,-11.77607232181908,-0.3358220748155089,2.480496162632091,12.370742005796997,12.10007911729745,g
2.338616850212965,-1.2216116662548724,0.7843216723270677,-13.35081025416044,1.9681710220367634,3.666743983502118,14.173984919671767,13.516980101173626,g
3.931604577199068,0.38057219827140687,2.9601345932972305,-13.302436249136377,4.091848570946148,4.910998909109397,15.649833622882133,14.63650364567207,g
5.389362969784761,1.615746460471541,4.90897719284762,-11.769282776590728,5.867464198018963,6.080456903149125,16.315747274805364,15.338618200058146,g
6.642918033052569,2.51316429460883,6.555777399527154,-9.334145871528118,7.213919294941709,7.081451703829616,16.08166977433554,15.616810280595,g
7.626703880187398,3.2012420956417187,7.860775569171804,-6.732122710237613,8.169014095057914,7.881968552795977,15.336200084510171,15.565752155896854,g
8.322446357399203,3.8271154662681384,8.829791528778117,-4.445227841027404,8.843933013554288,8.512038322466932,14.68736645486166,15.330853155185489,g
8.798766227231742,4.487018597954821,9.51118176684572,-2.5122611470823344,9.349820934998649,9.03533765851443,14.542936378231829,15.036589726504896,g
9.190337026289496,5.201098753918066,9.964190921138906,-0.7193700632823519,9.74551316672517,9.497629591036793,14.84933351126937,14.7308383655626,g
9.59973100741443,5.924603409296635,10.207536732256273,1.1398691358268918,9.996700213299127,9.893061223931728,15.175418543582186,14.37896924442407,g
9.99370096224536,6.571828826805567,10.190176211503397,3.262367565294202,9.957678048787646,10.17756949333154,15.04745461298602,13.901176572775565,g
10.199478240010453,7.041090281872016,9.823823289064764,5.916208964559741,9.441449205102945,10.301447148408903,14.265752433759918,13.219924779387094,g
10.022311778896453,7.237353811151654,9.062078717232046,9.276079256612936,8.372823074576763,10.218162070733339,12.986229967206427,12.299121803494758,g
9.38690849989983,7.086574008037644,7.957487245346167,13.148940563177613,6.882778611579269,9.875425990176062,11.547131578434364,11.170202229866385,g
8.385205613268791,6.54047776419317,6.6425450852884875,16.971638099715417,5.230625028647656,9.223282609071777,10.199475439825784,9.92562341227141,g
7.202038499332678,5.580820620592422,5.251696474858077,20.071058194438898,3.6312735686351063,8.240578373133388,8.947579795358372,8.661918830959054,g
5.9857918526038425,4.227035530520465,3.850351372765482,21.875803078998228,2.153216620930565,6.951460845140161,7.602549606565427,7.403436289637665,g
4.760256929302804,2.5368547386304123,2.4220952987034594,22.032218036326427,0.7382962320785481,5.423968295203896,5.9773432586960915,6.077623371017157,g
3.44280660891586,0.5946653299449907,0.9184125891936628,20.577585249259805,-0.7190402605961479,3.763379074114873,4.051627070561895,4.577640963568316,g
0.387871853203085,-3.608575951552756,-2.2238730366234067,15.008435916144226,-3.8410287470010815,0.5342847062328044,0.05062548018398751,1.0570569928516949,g
-1.063329116005735,-5.571001186171059,-3.585180735146568,11.851524566370243,-5.169557668160441,-0.8522955480883961,-1.543117554798013,-0.6322243756490545,g
-2.152530849503523,-7.189862555704396,-4.572451784261802,8.385918719879239,-5.986378648672797,-2.0213613674028466,-2.64913134059984,-1.9616088472057194,g
-2.1525308495035236,-7.189862555704396,-4.572451784261802,8.385918719879237,-5.986378648672797,-2.0213613674028466,-2.64913134059984,-1.9616088472057194,g
-2.7875631453032166,-8.293837216588168,-5.10919401954296,4.396481871174698,-6.184016370681993,-2.9189169907761046,-3.2313207561714656,-2.8188698597150412,g
-3.0732407026203346,-8.794942544883162,-5.243696860632136,0.0016811570482197168,-5.890810180329884,-3.478922801746017,-3.3578255652008813,-3.2945594714001047,g
-3.209012952960781,-8.727386312033085,-5.099300806492699,-4.347796177040312,-5.360256734610728,-3.675426672019372,-3.1825672936346194,-3.6271376124976626,g
-3.3297701628830927,-8.238938191564673,-4.796457379764904,-8.062128210420706,-4.80342606452053,-3.5649727920844443,-2.8927006629603067,-4.036664198692132,g
-3.414911715685739,-7.525827353613112,-4.3983872817562855,-10.591211252714178,-4.289876334803819,-3.265262529586219,-2.6287675229509975,-4.57142532361151,g
-3.3216731426082253,-6.738545270191999,-3.902437498047484,-11.695111042867167,-3.739187399420453,-2.8907744751058737,-2.4184787090122972,-5.090354563156398,g
-2.9148825390504465,-5.924658236265407,-3.2788802219840805,-11.719479118471687,-2.9963153849295012,-2.5019487964451383,-2.1724374759214653,-5.384454452679661,g
-2.2071526777521777,-5.0612219444553155,-2.5402762666243555,-11.430892337013852,-1.9845631427590618,-2.0967607314435286,-1.753573653784033,-5.325021672475163,g
-1.404764349738334,-4.150808992991719,-1.793722792073566,-11.368166425054863,-0.84171825557005,-1.6431517714058657,-1.0729933453150458,-4.925175962108982,g
-0.8095262298082361,-3.28905243165635,-1.222544438564763,-11.409974123794287,0.11329855100819035,-1.1372462113990895,-0.13896178424389255,-4.291233294596049,g
-0.6446176489969768,-2.637052732571795,-0.9970388515883342,-11.06760386154193,0.5898649375945784,-0.6472835674019742,0.9713196140794386,-3.525056018648473,g
-0.9444896991090352,-2.3226188487823594,-1.1813391691683646,-10.03461032142809,0.5108250093540636,-0.2921894619674886,2.1748847249760694,-2.661541460222082,g
-1.5885234648322208,-2.3557185390700317,-1.7110756591929726,-8.269513981091858,-0.0011071887705389472,-0.16017579864127085,3.414308779339737,-1.689381590556561,g
-2.4305685659990726,-2.6290156487208804,-2.459227439828225,-5.709310502658006,-0.7828696485218458,-0.250723164582437,4.6339294761721765,-0.6334438932358235,g
-3.4154280178510183,-3.009527563220958,-3.3423975813961895,-2.2474949854427653,-1.7642864748829912,-0.5084750824188393,5.734767048623736,0.38063883015956285,g
-4.607900650375801,-3.4549159870201755,-4.388630227357562,1.9054532222352456,-2.991373035853781,-0.9094130159372211,6.560644481322224,1.1494608847008263,g
-6.121550208724725,-4.052288313882463,-5.703575258251379,5.985261445472783,-4.557439045454002,-1.4970988903934688,6.944933175058717,1.4928594523627576,g
-7.9874864630917175,-4.926513503300239,-7.341360337606197,8.90618124739574,-6.474899944368053,-2.3295950529256486,6.799157340805971,1.351171773254731,g
-10.052324390393995,-6.084935853790468,-9.177758584549325,9.801449722829071,-8.555677699263661,-3.3960382012860952,6.177091503311768,0.8063216701986906,g
-11.996746187174873,-7.3411683303978945,-10.904705569857416,8.513427401641248,-10.421582998340792,-4.57979380640842,5.248956518374999,0.026801480658609968,g
-13.475414720440247,-8.394148463068136,-12.165994344534433,5.680351027426936,-11.68135657343421,-5.6914513165640805,4.193752914337389,-0.8094427846148969,g
-14.266130216034796,-8.992227260583734,-12.723717245606501,2.185657906472284,-12.122901222425533,-6.544466818910779,3.101306104320288,-1.5657121677044992,g
-14.314613283942043,-9.045559439509955,-12.526355879479915,-1.7160728824050213,-11.743408522622294,-7.024455921156888,1.9740142831980911,-2.1568209603993926,g
-13.675042096863967,-8.617814382631638,-11.654534310766248,-6.659205139835524,-10.638081715660388,-7.104653272878385,0.8264021544443511,-2.5295889759128167,g
-12.433025364150996,-7.831109952680116,-10.220935670894042,-13.27017550107546,-8.90686105903742,-6.799425437008158,-0.207653846169568,-2.635191866897736,g
-10.672557664836159,-6.760629153183307,-8.305190746018948,-20.943267848204144,-6.643756151606683,-6.10977405696591,-0.8587806945833835,-2.4187841833120634,g
-8.484976967945641,-5.385786631912478,-5.952564766469228,-27.72520778325825,-3.9477328461424195,-5.025568457229098,-0.8332887509667823,-1.8421896134288667,g
-6.000098655821563,-3.6354067797366474,-3.2258180275271955,-31.5538551749792,-0.9342239802386093,-3.5798598981845435,0.000459867156545668,-0.930937371398457,g
-3.4220033300883075,-1.5059781602956321,-0.27468906610098537,-31.55658044790378,2.208362679215539,-1.8877900830399408,1.4741381067520682,0.18642353980056175,g
-1.0341113213159325,0.8383235486200356,2.6341564337888856,-28.187911145071098,5.154894297649042,-0.13065467855033575,3.152906143324151,1.2841234782370818,g
0.858456198891324,3.0799989269976544,5.168842764232883,-22.399974007564,7.495645153572679,1.4851014713371395,4.554450390449671,2.1091373609514497,g
2.0246627789461797,4.881840768267424,7.043316197180474,-14.921785111520549,8.918447789674346,2.756840619676664,5.415404626870141,2.4941719471793276,g
2.374534644137019,6.044751349043688,8.114504200934087,-6.2853509936351095,9.365829670343071,3.5129295660240887,5.812056375835936,2.448906345900851,g
1.965224070524091,6.585368812565608,8.412519325346496,2.6469203840330318,9.037283547646783,3.659339310620213,6.05161036690482,2.159913221258089,g
0.970374969874252,6.698153898717024,8.106436347950705,10.337681240041476,8.271868745377912,3.224576963477692,6.427985790819821,1.8889427256258788,g
-0.3653320947105859,6.635224453612617,7.43326349478833,14.975996615503272,7.407755202471334,2.3613189600206197,7.0257553496045615,1.839600128275525,g
-1.792417982867665,6.571692110114017,6.615709133631393,15.568029068324591,6.660447406375714,1.2959031814409923,7.699604674829092,2.08415365662114,g
-3.1279154055833156,6.533185597171726,5.802923080366375,12.80509530422438,6.060032166780831,0.25195393584797793,8.222561560601513,2.584078071505286,g
-4.276953572223072,6.43319904917266,5.070735768421278,8.646962806442048,5.520492156573467,-0.6194754056026293,8.485865874349932,3.2644188445280187,g
-5.181804181438296,6.190612931291531,4.475022110529704,4.752275903517117,5.017864299909202,-1.2697220261632467,8.606656838740586,4.079377563082106,g
-5.758552267389299,5.826769776244753,4.095951480571817,1.299661373015704,4.697664792234479,-1.7157756032293416,8.863501813222053,5.030896622907529,g
-5.901606348961073,5.456547404473001,4.018495327268205,-2.522084000341043,4.773536562994475,-1.961761680931567,9.497281029537357,6.1353480330872205,g
-4.808795547792937,5.022866593250811,4.77905779388762,-10.846382883077114,6.1779823210475655,-1.6785679881324629,11.64102363345781,8.606710910859121,g
-3.843155770639263,4.872274524567027,5.432424553581268,-12.474920113040431,7.077941797094415,-1.1654231771589658,12.460931411389168,9.699774674387111,g
-2.8762517250118242,4.650497169734571,6.157316370328273,-11.107590815918565,7.827406355385674,-0.5740070506843266,12.654606846771324,10.498821729740106,g
-2.8762517250118242,4.650497169734572,6.157316370328274,-11.107590815918561,7.827406355385674,-0.5740070506843266,12.654606846771324,10.498821729740106,g
-2.00187925149745,4.399553729322184,7.005122254813732,-7.841155647136565,8.458259864534424,-0.05252430616631711,12.159653349329982,10.937352375556557,g
-1.1173423330913104,4.317497323162507,8.142211774807418,-5.04355874094679,9.236221828033546,0.3607241871035606,11.162687037533308,11.029646468655063,g
0.010604385915401516,4.657805006568763,9.744057909989612,-4.835109360928703,10.512280339007997,0.7585013538461799,9.951165676153959,10.838493210765785,g
1.5559425165809226,5.560969468543853,11.849528321617845,-7.655262046270257,12.464615875567281,1.2982725060994702,8.747721235159148,10.446647159810222,g
3.4596247880149384,6.944383406740511,14.278482637363087,-11.973862404947498,14.911636755978074,2.1055381648510147,7.639473397638805,9.940783664896683,g
5.422036432183271,8.539254157728774,16.683409964280226,-15.449706223140163,17.379302553350477,3.20159326853775,6.627835705647669,9.396758719842797,g
7.073381896206319,10.044293970082247,18.70462923188078,-16.582560704047957,19.38187723878399,4.492829019976044,5.729060989102769,8.866004306815666,g
8.178071704944943,11.269168608660888,20.114343315329503,-15.372244535849305,20.66249207435152,5.828428590266055,5.022300357622128,8.367309589235504,g
8.711256093797855,12.156790013522414,20.847414101970994,-12.528153723907588,21.206150492538747,7.075750792365133,4.598700483178776,7.87780462765006,g
8.768100262835008,12.685470302660018,20.913393059114245,-8.3018042810235,21.080655272530237,8.137104095062828,4.464674221475414,7.3276160794625,g
7.512236121454761,5.349121696145014,7.848044863170527,0.8342197567859113,5.217187472590668,-1.2083900345422536,0.4176596387957562,-1.0337493359150667,g
6.948954256319302,4.262622321921358,7.1974895779328945,-1.3109894880396582,4.5320336900164016,-1.5585746313208766,-1.049248756531508,-1.586417404856651,g
6.068621218997902,3.2903027683113506,6.304901304809426,-2.193418116659025,3.6851922403668356,-1.7497785069842053,-2.1186720851166085,-2.1722443923051986,g
4.747101158894818,2.210291995848612,4.966846618900243,-1.385818437555431,2.3982953376259437,-1.948802242785876,-3.1447984786363508,-2.9230112226093636,g
2.9816812272449527,0.7886557422156499,3.105166839472831,0.3039599227547155,0.562895945295211,-2.373459240303308,-4.529614749787276,-3.9903278606999506,g
1.0066531619443804,-0.9529446361105732,0.9504408153071802,1.2824843043543974,-1.5423419810224834,-3.1203175003103345,-6.369018263972218,-5.395089871856593,g
-0.7871664211101175,-2.6844266361437166,-1.0254587928544008,0.4699142642588612,-3.3787304162019467,-4.065409461221045,-8.357111849539175,-6.954033817333327,g
-2.0731238754087054,-3.975451857662931,-2.3895180954175825,-1.6046035600027608,-4.518371909953766,-4.929168413701137,-10.015538922577301,-8.36354801223398,g
-2.758851112382697,-4.584066733432413,-3.0063015154615638,-3.131144519671287,-4.908739344109883,-5.478126879562967,-11.041347980265906,-9.382905146537613,g
-2.970637672658035,-4.59186448243716,-3.0632015761735945,-2.622284312882222,-4.817035389783939,-5.700315230702456,-11.485478534071763,-9.960315247932526,g
-2.8846183625196486,-4.293312749176185,-2.8526820628504543,-0.26943657300733753,-4.5496870913012355,-5.793975978049065,-11.635594213562438,-10.195493549532447,g
-1.8643424297521385,-3.5573819883070312,-1.842327947934472,2.5086180018221524,-3.5161251026771874,-6.308726602945418,-11.746207607048337,-9.898119407914868,g
-0.6519402587340001,-2.9143105884826594,-0.5860002197025047,-0.2801145869264616,-2.1902857358322643,-6.6111808418587925,-11.455580382893881,-9.188181593443767,g
1.1337932253340333,-1.719734009154816,1.4577654996126586,-5.7013030253421695,-0.02426240771948418,-6.606951867246731,-10.627157405604127,-7.927849358693072,g
1.133793225334033,-1.719734009154816,1.4577654996126586,-5.701303025342169,-0.02426240771948418,-6.606951867246731,-10.627157405604127,-7.927849358693072,g
3.352349893206032,0.19046024100690334,4.1981996599664635,-11.993764617830985,2.83151254820761,-6.072877457288675,-9.219754192111733,-6.150195360776263,g
5.747501806922889,2.755740903949151,7.318193308758147,-17.31302405233688,5.987769994669466,-4.969789153612756,-7.3774877327226775,-4.080151403482075,g
8.084784389576702,5.727387910095116,10.461382061663212,-20.851316081083787,9.082109590208885,-3.455014690172214,-5.282189643843641,-2.024533300037226,g
10.215005782040034,8.76872206090469,13.372665903655754,-22.916837280310272,11.930951510545455,-1.773027479541419,-3.034396962860451,-0.20805331476878894,g
12.031228282453903,11.550679625518223,15.89517809555422,-23.914928227011888,14.444628459011435,-0.11057371414946707,-0.6778261349943001,1.308248336455733,g
13.413325290397669,13.82446652704302,17.89093614117883,-23.429478361880562,16.473178997819026,1.4584409146922315,1.685010678748688,2.5663906685089257,g
14.249964095796262,15.47120876714441,19.212088613924426,-20.49199467862923,17.794629521254425,2.904734226839186,3.833716235123505,3.583513455393573,g
14.514087138509542,16.507693141499416,19.760581291810695,-14.676510885231812,18.242085985711462,4.150956802767737,5.51073509522031,4.285536553398942,g
14.296558475824247,17.027919772700706,19.559116975173744,-6.764055315573939,17.812373866021698,5.062889420993361,6.579050794241077,4.554636467300894,g
13.750316771374386,17.107418181613603,18.74348431209038,1.611690661283982,16.66228496607018,5.519044254457721,7.111393571797549,4.329814663658488,g
12.992900057870411,16.741390428780345,17.4745926432147,8.843136689029583,15.019775247025745,5.475133350014047,7.320045989182361,3.665786848237077,g
12.055841698918822,15.871806892151517,15.855961642310012,14.04456670681582,13.078526525159736,4.976010145168625,7.377373223485643,2.708727404527226,g
10.927194581263239,14.488080430178536,13.940918641462801,17.24694058972,10.946467425674047,4.130428556205704,7.28053562692179,1.6174296194075126,g
9.648431515538979,12.720094653510959,11.823941879318905,19.042420998477883,8.699891631781757,3.0729770632092603,6.883573188601082,0.4934529132441228,g
8.367321114031167,10.837791843812994,9.716166722728948,19.8874690892454,6.496132264266419,1.9264339763819784,6.072586759525016,-0.6272283773578906,g
7.276614279612895,9.138377790589281,7.903123885893244,19.655220379422644,4.595747433386609,0.7838678326780361,4.9233248017506295,-1.721819713711583,g
6.478521087450835,7.794035658213413,6.590360685956571,17.9146167502915,3.2207255398603634,-0.281549719960622,3.688824686488439,-2.729303702724694,g
5.901226844089292,6.774780331861048,5.762986577046699,14.603065952002748,2.3845601108062757,-1.2082364797325087,2.622357986123606,-3.5627595775676766,g
5.352564436419463,5.910037519818647,5.194354842586188,10.277399754551947,1.889804067775163,-1.966052825405432,1.800592527472665,-4.1711287308509215,g
4.665069857288086,5.045622764839683,4.617906615453236,5.712246100124611,1.5012069799720567,-2.573899380291801,1.1149345137285507,-4.5693895865208,g
3.8099267111920723,4.17993496221,3.935308783347992,1.4099159481127572,1.1218389003202929,-3.066013664081857,0.44112071754932425,-4.791001483898788,g
2.9040183575748992,3.482677768357669,3.2996469685714738,-2.49983287152243,0.8393817008031317,-3.4264820060613053,-0.16830328705650804,-4.812547840912325,g
2.129343603609445,3.187443144463445,3.0082434967418337,-6.0948359704212,0.8516046415596854,-3.5701524693353166,-0.4466718407395005,-4.535936920466165,g
1.6312369692280722,3.434270675408846,3.2830924166934126,-9.50313114551519,1.333244040293352,-3.401432753429087,-0.07853781557876069,-3.8531753383233904,g
1.452961392746951,4.166301757232857,4.1001197784892796,-12.777598145842209,2.3022118031787064,-2.8923006419113753,1.0553551792352063,-2.742748070691955,g
1.5360405463992262,5.147259598995032,5.192858887504507,-15.81516961008965,3.5706385584223006,-2.1068662705100953,2.7536738007999064,-1.323467518725497,g
1.77932357118079,6.088550539059976,6.225727055029679,-18.43523441148169,4.847731424762456,-1.1606774390501675,4.60799711327475,0.18296135269828645,g
2.112234625137602,6.801772119216284,7.003924400581804,-20.507200411590098,5.926260111869251,-0.15089583205740037,6.277993738217722,1.5736912396407614,g
2.530852868410558,7.273852419814373,7.564051051378198,-21.8419644155244,6.783758284563549,0.8981995975432471,7.704985166773945,2.7925027195325756,g
3.080368670970496,7.616275990317289,8.089106086611785,-21.968234512349866,7.52196603546614,2.0333551326351356,9.085063323744409,3.9566845432491156,g
3.804334335597403,7.930523257635623,8.725438898403157,-20.314853757576323,8.234945969559728,3.3017893682737416,10.633463791700413,5.250535280002783,g
4.688379646602569,8.192706490869618,9.44065170180542,-16.838941554734355,8.920739665115889,4.668195462439569,12.35299574757649,6.777860483734709,g
5.623452908834324,8.246571123831112,10.01864218347719,-12.33361070899422,9.45948905830189,6.009563370380944,14.002736276026809,8.500974516931468,g
6.417985439921904,7.912675743272056,10.187410745139355,-7.8500738074689975,9.64736301993847,7.202230802071753,15.27773631014287,10.294425724054204,g
6.870638801453746,7.128842901470117,9.786146630338894,-3.771103716943324,9.298018334903773,8.205251906456535,16.033695162402488,12.029511361002706,g
6.862776325196586,6.006735748920202,8.854220502475869,0.45159304522683713,8.372608792222312,9.047622310652184,16.36682611595334,13.604224347442905,g
6.399144255092243,4.755727887023189,7.584282477724874,5.653924591506344,7.0204730363645185,9.743258440947574,16.489281668370303,14.913850579543512,g
5.5686256679557165,3.5374998224141807,6.184958694866083,12.07628981862746,5.4730405164476315,10.232521004636906,16.510454018127522,15.812347166906767,g
4.4716946991594195,2.3714927142326934,4.762528036986916,18.95032746143196,3.894346037465026,10.401868765600891,16.310979939992574,16.109593049827716,g
3.1811989188065537,1.1614285399996735,3.3032587212457587,24.787785326765594,2.3283732009943354,10.150809144880682,15.619323029324722,15.622025951235276,g
1.7570910861295985,-0.18997085963102656,1.75281974550124,28.221246064462786,0.7541582390614628,9.45222251852896,14.231651198928375,14.260536379468709,g
0.28777924716876135,-1.6725964919707992,0.12412879350278878,28.89419840117182,-0.834187201484316,8.372161274398259,12.196138747602385,12.099266431697766,g
-2.149607400501334,-4.386709652196351,-2.700787689370958,25.62442321402176,-3.666672726507335,5.570880922202339,7.466401766623764,6.330137817161445,g
-2.728527440601585,-5.222461312445653,-3.4052273167964464,23.230661280216943,-4.478440041779658,4.06104352172373,5.400790128713596,3.241679858733547,g
-2.6991677555235603,-5.5619138688677,-3.4134249494159916,19.78563186259077,-4.590098193133433,2.5935949683801223,3.657016576673746,0.27513738163798473,g
-2.69916775552356,-5.5619138688677,-3.4134249494159916,19.785631862590773,-4.590098193133433,2.5935949683801227,3.657016576673746,0.2751373816379846,g
-2.059565587628464,-5.403614662905642,-2.7408083980928226,14.40961933101256,-3.947270858202478,1.3115968616347744,2.157914994060512,-2.4035646778371307,g
-0.9129048586019828,-4.785676636403982,-1.527539798018485,7.070072992880216,-2.6604317720496455,0.41321241278688053,0.8770550675045131,-4.590309291725083,g
0.5630825464916749,-3.7630632385071707,0.030891491309134978,-1.0302114204021862,-0.9285078440418303,0.07128577117364956,-0.07167380206105203,-6.045571136325809,g
2.1301882267692265,-2.434466873952992,1.7234603748358222,-7.837780141013428,1.0025695503820966,0.34213451328913025,-0.4955192806201311,-6.554051375078518,g
3.496031607456787,-0.9821127369068889,3.3124884394801954,-11.297665029636788,2.821306991978743,1.127297000497339,-0.27725086350391487,-6.0134939922072475,g
4.349464820249728,0.32956647890510665,4.510593516940078,-10.356900256087956,4.165324465884245,2.192443593703484,0.5082717263492803,-4.508083712822774,g
4.4356078705674875,1.214945032498735,5.00414361191111,-5.620323477590926,4.716950420061115,3.2290746330939357,1.6127196402925357,-2.3114374465343146,g
3.6420081974379324,1.4641572241201977,4.549210653746372,0.94513847744119,4.311477119813494,3.9568016706655973,2.763481488668128,0.2070018397659686,g
2.0561753677709342,1.0310116717582098,3.1021063578598036,7.194232913382697,2.9872252057347155,4.234158749342972,3.8394421194635577,2.724799425966805,g
-0.041364155563258544,0.06113130854937363,0.8902995018503645,11.917627081340033,0.9751532884554308,4.100849906516065,4.938143071415458,5.0629985201034895,g
-2.272223366660998,-1.1734491383802224,-1.6612536101605706,15.041059317923935,-1.372100825092775,3.707968833514287,6.269869532575968,7.177917558749317,g
-4.31786604394315,-2.409346213040691,-4.13132571113224,17.06893984231834,-3.724045137182621,3.190756536660125,7.949066629300312,9.072815012904076,g
-6.041942044827225,-3.5062083531818216,-6.29167866832203,18.464678445234817,-5.914867219918278,2.5829274826977833,9.84378136604386,10.699528911846642,g
-7.474591389947601,-4.451986058199578,-8.132134331471196,19.277821984678646,-7.937800817348089,1.8220630594801743,11.603242475184977,11.910044812867843,g
-8.664285963828593,-5.262123810211994,-9.703854834952164,18.994577684532047,-9.767847179728621,0.8300205842212798,12.8429283641832,12.48645401637102,g
-9.527026370861877,-5.871260863405508,-10.924617226312302,16.767713649992086,-11.197470508836336,-0.37926907658989595,13.346330611160326,12.237339938952088,g
-9.8294890255389,-6.118594135659723,-11.524355206215512,12.11139386784897,-11.872755158873565,-1.635463011339919,13.138301408410095,11.10157204696863,g
-9.328466056078211,-5.842361874649022,-11.190706980678256,5.530404981669129,-11.500363952578187,-2.6638044023239464,12.392390017768914,9.188087428440708,g
-7.966997267567066,-5.010309227236449,-9.81098540109579,-1.6254914012057546,-10.043013768301337,-3.246670038721972,11.266898920226458,6.733868179282197,g
-5.98539314455319,-3.7862169534590735,-7.625484893793905,-7.990224286687749,-7.777581317207812,-3.3674757231833903,9.816073565103135,4.028986533686445,g
-3.852098262614426,-2.474205641301764,-5.162255795009926,-12.854002073922064,-5.204249767887752,-3.1997972592347503,8.047374548671588,1.359693128322515,g
-2.0339081816104754,-1.3672215262220242,-2.979912174263337,-16.16008049340403,-2.843461249824819,-2.949659541478679,6.055665739043064,-1.0268671891305154,g
-0.7540838066669286,-0.6027707456914364,-1.3930706234838346,-18.10616837421181,-1.0072110319778593,-2.6984271494107546,4.090665501178752,-2.949640256003028,g
0.07886973594739058,-0.12920513699122144,-0.3722936560859786,-18.820329449967556,0.30424217335937553,-2.3719097975656505,2.479104027581421,-4.299048567742228,g
0.717312034990434,0.2066282159934459,0.3286949347119876,-18.247434571883407,1.2910247326832605,-1.8305781024808117,1.4640019694074682,-5.002889063592882,g
1.331446000144028,0.5402226953009119,0.9420162532669349,-16.24264403683811,2.135312796508148,-0.9914511172516001,1.1007968860866981,-4.975981043804244,g
1.8773440574969011,0.9350525871050618,1.5326890165873248,-12.876232742929625,2.879421967365081,0.09998354480125685,1.2913525166964648,-4.105460946779089,g
2.162395392089028,1.4073511631989457,2.0137311271887017,-8.699895933957409,3.4678581788299994,1.2874992005206678,1.907148628527627,-2.2974456209335377,g
2.0351218079770788,1.9738199433955004,2.281743318417012,-4.567797891901273,3.8509140910359263,2.4010407989621054,2.881558849351644,0.4386192498938543,g
1.5538617057380841,2.6695927044654857,2.3534325624643726,-1.0826244653137773,4.052828100959542,3.361586107791356,4.199631232675076,3.9204282479962425,g
1.0148318405934318,3.529803787757589,2.4036455972309563,1.6952605608542974,4.198657091844572,4.2052164310234685,5.8228445246562,7.792657779141005,g
0.806831649548047,4.560918897004083,2.6833831189851667,3.9240318540336476,4.498217874922749,5.013124746874544,7.645340705021816,11.623168922927093,g
1.1803987857218492,5.730651308793346,3.3818968221265124,5.515534455300478,5.158250365413415,5.829405944868064,9.534433792734468,15.055164825176211,g
2.103212638271595,6.985684479265915,4.534174057216454,6.151166962574743,6.26190745076695,6.6433299006946,11.41101455552827,17.908594100793437,g
3.3211162835101846,8.27766360910044,6.030490814501627,5.698842968832501,7.727366883117,7.4237714641420025,13.274878682919283,20.145082958413347,g
4.570063919978068,9.566843749577119,7.696777013936578,4.487392406999523,9.38086849472516,8.148480119918194,15.130878441369166,21.730233882913414,g
5.754561236691108,10.800201858082286,9.369828900329667,3.2055923213900614,11.047142417477453,8.809101328092735,16.87801165319221,22.528189942207952,g
6.952884826823333,11.898608326522888,10.924241628630343,2.6067655192293477,12.574580445278562,9.407152452369388,18.277314239419233,22.33229717711517,g
8.267845352241746,12.781254105414062,12.26308360910148,3.207509059883823,13.830518030392497,9.941411769141947,19.05228358276367,21.005951394819242,g
9.6582093021889,13.406018569613456,13.301704623059484,5.1036590844523095,14.71885999334906,10.381875544590912,19.049967213309362,18.61277842803121,g
10.886698540482985,13.77895898671078,13.96113648772677,8.059167546237596,15.190178681893736,10.655915738429378,18.32494674923648,15.431239118725738,g
11.632962876936912,13.921440993573356,14.176823285057349,11.798786292004868,15.213358065452027,10.675160845661352,17.07135646369291,11.840416727735866,g
11.125383510318864,13.462504694796564,13.196926841244467,20.460429919403534,13.837211879351333,9.769787883265467,13.5337563085213,4.532956686698552,g
10.15153132156626,12.748622456085936,12.045891782489296,24.020565015905753,12.512762718232041,8.86219828616748,11.207513881692767,0.9985252232494025,g
8.973673519553566,11.610680936053651,10.48404549124663,25.976547473933607,10.85386698432731,7.6933298570434285,8.419434838929472,-2.420275926389963,g
8.973673519553568,11.61068093605365,10.48404549124663,25.976547473933607,10.853866984327308,7.6933298570434285,8.419434838929472,-2.4202759263899636,g
7.5893818573662895,9.990172622535079,8.513122731024712,26.347071517725517,8.865510107013353,6.2964069746897,5.244182016958493,-5.5952421329447315,g
5.827454657273419,7.881490626935677,6.158715246385151,26.015839809830975,6.524362124350037,4.6999040751281225,1.917178387626484,-8.301257636829002,g
3.5457821141010952,5.363167847387554,3.517006048557122,25.93696915815257,3.8795543048840266,2.933739584415001,-1.2530861443082406,-10.308538166656913,g
0.8153014808019625,2.612211966947927,0.7603051347260854,26.302959683239216,1.0948500880376164,1.056653497059893,-4.00987948518767,-11.481908196122275,g
-2.058294941178462,-0.11093844553963379,-1.9037219548574675,26.422339815033688,-1.602873391153334,-0.820969370246037,-6.224349513965665,-11.826929631800043,g
-4.681154807496735,-2.5178480449839795,-4.289195317049447,25.267281027502634,-3.9949706704611208,-2.5639855047378997,-7.8895511257672055,-11.473065491188901,g
-6.771753377391579,-4.382534608419778,-6.274834508276202,22.19423398265048,-5.917482043844075,-4.079836449275016,-9.065238601776871,-10.613773046820633,g
-8.273603200099593,-5.622676376110073,-7.81507134395236,17.38595967280056,-7.299768802861037,-5.35562682186284,-9.830687712832027,-9.439606091688274,g
-9.307946684336306,-6.309065829046399,-8.917576397735873,11.70954415456956,-8.180104264872615,-6.422291829627467,-10.272973908659477,-8.10868040064923,g
-10.018669685424202,-6.588564403642569,-9.60905242194075,6.020956033479308,-8.654954457728596,-7.2875459703631105,-10.492525781046133,-6.771466147020807,g
-10.44708151534269,-6.584159171876356,-9.923912987016598,0.558137136984121,-8.800510155275807,-7.907177034921834,-10.59447150858132,-5.610099373490755,g
-10.533106153811392,-6.355181225780607,-9.921545812632239,-4.818651638523598,-8.664392926265801,-8.215467912276688,-10.66111497251077,-4.832421666043477,g
-10.207909537108895,-5.93521647128345,-9.691578552271324,-9.740867253567098,-8.322379670817881,-8.18705128092044,-10.731391157060184,-4.610409580711244,g
-9.467094627848946,-5.389921003390688,-9.310805722055486,-13.001396608783262,-7.877595218508041,-7.8900241728752105,-10.812136580535052,-5.01262398374241,g
-8.36952614315129,-4.831037855116486,-8.780351367513761,-13.490746147472702,-7.3610342391297605,-7.486839307002453,-10.916454210804,-5.9849450077346,g
-7.002893466315494,-4.3769264154774055,-8.016209275713873,-11.517901336771104,-6.664662223816248,-7.154580831808415,-11.095422195953041,-7.394049787719139,g
-5.470481861709241,-4.096100245878491,-6.9231480031142665,-8.984012605912833,-5.623321472840705,-6.963433859879504,-11.424618406240587,-9.105683417831075,g
-3.895201532421292,-3.971973604595823,-5.493676826945881,-8.038826993740154,-4.169056170812585,-6.818434462600331,-11.933798332249028,-11.03696868984019,g
-2.404879452819673,-3.902610505057362,-3.8402974364874467,-9.395956533622204,-2.393344666433377,-6.530934703675011,-12.517148281453183,-13.118471388595665,g
-1.089697519702884,-3.727982265820742,-2.1259544386063913,-11.767776510812915,-0.47153822519084754,-5.960034501891946,-12.90016848879076,-15.170791900112466,g
0.04109539121928707,-3.270641084192664,-0.4477923429093792,-12.908053706177512,1.463775682535861,-5.098445981114892,-12.722903583948808,-16.81269989955891,g
1.064338914308347,-2.3840101775416347,1.2230867761171547,-11.510837745932207,3.4035097317149856,-4.045706896509772,-11.718206182767563,-17.53950969213948,g
2.080856087600869,-1.0131351945338802,2.975746778909176,-8.46065474749323,5.435238178641443,-2.9174912518643756,-9.87606266383419,-16.969715348870366,g
3.098362336737004,0.7402862166965665,4.798570079123527,-6.19581769026248,7.586167054304541,-1.7711842254096943,-7.473712006498909,-15.083168849885052,g
3.942126600430899,2.5951883214583256,6.457167688990734,-6.4575503937765175,9.629065904935485,-0.5950954141586686,-4.93871108487018,-12.25763524454008,g
4.299946493896869,4.168252857327973,7.546840549438234,-8.409562186375878,11.064963600239837,0.6329122632496905,-2.6326625658156715,-9.07154956039474,g
3.9107159391940343,5.1419262966069414,7.71853550804561,-9.079627438529574,11.393381259530184,1.8582623413013155,-0.7021000721738228,-6.017849646627174,g
2.7559263394370506,5.4150790316930975,6.908981744712392,-5.8859184746426285,10.47094752252579,2.915955949864545,0.9070871334142112,-3.322551628494126,g
1.0814322208957023,5.110682799387222,5.377690793673946,1.0972820744259344,8.613158209681888,3.6031977261385344,2.299116854375746,-0.9719919992305375,g
-0.7800673542248132,4.424641494316579,3.5110715939566957,9.163077367374786,6.3353432802445795,3.804795241074231,3.4729956081377495,1.1001870383858996,g
-2.6383828115868555,3.441425410010859,1.5538024520264284,15.049309288833632,3.9827721439454806,3.5535179941919743,4.294626441113742,2.833765913688111,g
-4.538704207676866,2.078131020148672,-0.5119713645568013,17.132097834049343,1.5697193032960757,2.9777883415372717,4.620540641237047,4.028916893985792,g
-6.64491361967946,0.21142347353395152,-2.8437959412463956,16.078623743701133,-1.0776791317497705,2.2068633931216715,4.462724406180494,4.50492385154403,g
-9.004521742371962,-2.1173420491753623,-5.477423624952844,13.785609624185787,-4.021829297200246,1.3223428738637926,4.036736775447224,4.268876072783126,g
-11.383617627437978,-4.599347326989891,-8.14892608681119,11.684543966963066,-6.996311725657715,0.3687968425707272,3.6301576527658215,3.5280414536437283,g
-13.32133458929459,-6.761113394712379,-10.360714614809345,9.797818812755906,-9.454988995390874,-0.6141059831779025,3.394401084691951,2.54743262734358,g
-14.385642628527009,-8.203969271992559,-11.652313249811519,7.218816859452408,-10.885002935503522,-1.5626385204788904,3.2433484405607507,1.5022701504309832,g
-14.436254728948692,-8.79390949199708,-11.864797497591754,3.420569339324699,-11.143595037769309,-2.3773406302291766,2.9474654451491995,0.4460298624259151,g
-13.682330385018648,-8.660789998376089,-11.196052211665997,-0.9610016986779936,-10.520395234791863,-2.9506049062245543,2.333288047022031,-0.6233250269274964,g
-12.495774397173701,-8.02900409767336,-10.020176574938791,-4.62787365813845,-9.470320622152867,-3.2266735175046946,1.418218452258073,-1.6886870529715605,g
-11.142927289100763,-7.0305583131360105,-8.62430917726212,-6.806654447768528,-8.269244941053845,-3.2338624898746593,0.3947722073611116,-2.681768380774045,g
-7.854452503306559,-3.7773664358514045,-5.180042138310597,-9.252347689866165,-5.069230681449083,-2.6768416738760887,-1.0313817912200147,-3.982562649640819,g
-5.675940337567463,-1.437247240562645,-2.8770324470312336,-11.919068272941022,-2.679373408280177,-2.092539372264993,-1.1532558164842226,-4.050701970665396,g
-3.2573514120587284,1.1862848259068899,-0.2579389024728428,-16.00450301370582,0.18149127251345085,-1.2049108324746953,-0.8518273663395451,-3.623605223888917,g
-3.2573514120587292,1.1862848259068897,-0.2579389024728426,-16.00450301370582,0.18149127251345085,-1.2049108324746958,-0.8518273663395451,-3.623605223888917,g
-1.011027413155791,3.7429178942801755,2.282042732815347,-20.219885827539162,3.068111584025976,0.025707648708544095,-0.16267427798130313,-2.672927632567429,g
0.565777984458442,5.859195010397956,4.203777770077997,-22.4757422749304,5.348478478918733,1.5314538584948798,0.8777821778479536,-1.2160311459434605,g
1.147682233661954,7.286941011166516,5.075024551817952,-21.153603472999876,6.500619916953271,3.1208067810527207,2.223704034943903,0.6687253183555353,g
0.7308210174157879,7.971622209815898,4.76953235309121,-16.227399768754726,6.359751067869986,4.531589735915527,3.783104617742186,2.840674561524056,g
-0.4245421595395834,8.008849422821537,3.494192001603797,-9.299305974528519,5.137301684532018,5.5409452087897675,5.391812601143727,5.128090234589484,g
-2.0003140673001414,7.528103666768071,1.6379118161113175,-2.5057527281036696,3.2274337937329562,6.0581487627419515,6.820356914292479,7.3623386560535895,g
-3.8221648640899084,6.580769224440147,-0.458166440339666,2.797738933192974,0.9684628544998386,6.118680533736906,7.807314511027331,9.375285449475255,g
-5.927452029864118,5.104196693347271,-2.666191648552641,6.651993931370233,-1.4996218184546712,5.788501454859673,8.108388194442849,10.974010926677241,g
-8.467724431516784,2.991305977142609,-5.0676499371621455,10.150497348454,-4.23306863569028,5.077203946156551,7.5621800789595595,11.94882952970923,g
-11.515251594370614,0.22891427992774888,-7.782574399465906,14.391226284391834,-7.337016390155517,3.93816605876424,6.165211872299606,12.142266875883859,g
-14.905164313223958,-2.989450100912977,-10.756233684773964,19.27992808660147,-10.738119913937393,2.342780679324913,4.116766644267063,11.544713794302329,g
-18.2303280998214,-6.26835407647462,-13.669068578874274,23.05034044479379,-14.04946281642878,0.3662305626463171,1.7823406580048253,10.348804525769285,g
-21.000734421424216,-9.144403848486082,-16.04396581486848,23.17316773206293,-16.68289953144374,-1.767787239999763,-0.43121907433902196,8.906133390342536,g
-22.85042493415787,-11.25853402561641,-17.4660495788878,18.201882550422503,-18.143935525480387,-3.718300324569479,-2.223378892414972,7.582099982943061,g
-23.64131964176175,-12.445749832682647,-17.746022202509728,9.030041603542662,-18.254638464659948,-5.141047066576103,-3.4766144412423925,6.5837965573338,g
-23.41169740129454,-12.695447839117584,-16.922467926877612,-1.5836736449537612,-17.136753796039482,-5.826246925303931,-4.21960764828119,5.8833169043620455,g
-22.24706568429791,-12.042597354703965,-15.139601007884783,-10.804366644996582,-15.032316823675213,-5.755634417624276,-4.5192652479559525,5.304291815200502,g
-20.192620268659937,-10.493190076788572,-12.523126449669672,-17.364261195111983,-12.142433542318283,-5.032285644432497,-4.387616731872184,4.707274345126826,g
-17.26943337867851,-8.042456292619594,-9.151834278176029,-21.938428399703337,-8.578355543098452,-3.7545502069297347,-3.767289470292411,4.124859841263761,g
-13.5734872078585,-4.764619753327294,-5.1316462857708345,-26.131194482586288,-4.424806553732421,-1.9479967302365737,-2.601590958663259,3.7441530864275876,g
-9.380186375262081,-0.8996030903145268,-0.698315988838511,-30.781062731907106,0.12312773964780135,0.3998135280696438,-0.9402862375238404,3.7597852552983957,g
-5.164604826666268,3.1373520946164124,3.744390657615969,-34.77360207831498,4.647916854260567,3.2415055126161447,0.9958331571576696,4.212504146208208,g
-1.497530827628672,6.844865235061003,7.691683514070258,-35.4140120850455,8.553489740941293,6.377757886182027,2.8504195160532304,4.93111881940113,g
1.1253299481316268,9.772795369391838,10.665976706055286,-30.29077957001301,11.274651460916532,9.435029637998513,4.260995378189797,5.622593354718248,g
2.4037957279790456,11.62212365218836,12.320665954723646,-19.16067898039983,12.479354651377497,11.953309751494668,5.004372898436058,6.047909468902725,g
2.23550415202185,12.258353467216924,12.472782714503998,-13.40470370327733,12.098796171014126,13.55261677227757,5.06021248825656,6.147623289371279,g
0.6417055059622372,11.662727048359383,11.088626259686892,-7.533608313399786,10.222647956262936,14.064267849631667,4.550510676152303,6.01484274941416,g
-2.290153212269937,9.884043521472728,8.27114888710813,-2.3157294688759946,7.0174938553035515,13.527164003676168,3.605869674253738,5.7473357121360475,g
-6.3974740690822465,7.031039157779695,4.26466537116772,8.608406776070106,2.7329572146729086,12.074512672793109,2.2670501075774503,5.320743458223652,g
-7.870032888582935,3.297826252054816,-0.545652441460032,17.10265639492082,-2.2662338534695547,9.831973702319711,0.5009615167445742,4.595080346821314,g
-9.586675296517116,-1.0140376993190512,-5.667065789848874,23.34940604808974,-7.5019768656628445,6.90637500773466,-1.6888426986696943,3.433204599724978,g
-11.206393263346516,-5.512862595052054,-10.574279788822702,26.686900601447775,-12.429615172423894,3.438289247170181,-4.161733311005629,1.8176498342145773,g
-12.372379184609816,-9.785278544127166,-14.811015057595778,25.855772264403846,-16.540831086546596,-0.349604843306933,-6.644365125768246,-0.12299061201803116,g
-15.846506882650857,-13.488140034440068,-18.07921723754908,20.103855201140565,-19.507835850696317,-4.147975932165844,-8.8383533338909,-2.1816988617209927,g
-18.116538019651195,-16.408049223797708,-20.268973087314073,10.1272093089914,-21.268433236158504,-7.61028130646053,-10.54078541078986,-4.175768236102231,g
-19.28890485452817,-18.45058813097778,-21.412130407050633,7.00679416658479,-21.953439390174914,-10.44262044991205,-11.686263954155894,-6.009907222055782,g
-19.53136635608781,-19.580038740463337,-21.597282340949818,3.95080478124994,-21.7167753990918,-12.480487001187635,-12.29514335709688,-7.651998363546572,g
-18.950353005834636,-19.771953393415018,-20.910484480208538,0.3090625796909009,-20.643676806592044,-13.690240777147647,-12.387493796913565,-9.040948097814177,g
-17.58421925336087,-19.019260706353982,-19.434038067581625,-10.844663088312823,-18.804312550808643,-14.101971751002363,-11.936199323176325,-10.012801715108314,g
-19.00177322087814,-17.3735310359373,-17.27889990689595,-20.844885620337646,-16.338085059852492,-13.753157938806856,-10.888727359058246,-10.32602809590568,g
-20.002345166847718,-14.972690569627208,-14.603172976348542,-29.061216574447535,-13.45079353772027,-12.694786418500648,-9.231238111750246,-9.780858199728367,g
-20.568560894235155,-12.030501304546245,-11.595107750819297,-34.887719988767635,-10.348717538193796,-11.022712852254696,-7.0436565165993015,-8.345894597389961,g
-17.57158809524916,-5.5768320187095055,-5.2999924465326025,-39.572584717310626,-4.114446284351677,-6.4135547104057675,-1.8883045746069975,-3.684910512073068,g
-14.620927685066505,-2.6443746630732567,-2.337068129890718,-39.41435050809852,-1.2229865200854753,-3.7928778145469515,0.5441515087673965,-1.139405411629209,g
-12.00799942169218,-0.3126378705831635,0.26882457362803913,-37.75702706890685,1.3198428550605932,-1.1846942466161887,2.5272252015360888,1.1869768807109202,g
-12.00799942169218,-0.3126378705831634,0.2688245736280395,-37.757027068906844,1.3198428550605934,-1.184694246616189,2.527225201536089,1.1869768807109202,g
-9.858192414779966,1.1544242897183687,2.3225059651808166,-33.93025718172795,3.28516622506739,1.231553072369251,3.8478438262879537,3.174115539176097,g
-8.280232944629734,1.6101507444740484,3.6664407617498798,-27.22845300893427,4.4378435593246195,3.2798221465266564,4.361747500540085,4.745510251925472,g
-7.32359282515165,1.0737293519359548,4.232929218858248,-17.8321363503314,4.664178940878948,4.800008980077984,4.011731107134576,5.767248704846837,g
-6.988672156381774,-0.3071323543163605,4.031079327315127,-7.012153198427194,4.015840854967649,5.6624955446726055,2.826880360317496,6.039090517281939,g
-7.301844023958756,-2.3670410109536055,3.069270355404456,3.73911122130445,2.5939767556909654,5.790537084990923,0.8953899126602559,5.39667856143826,g
-8.360812031397943,-5.013814214804705,1.3034371095429198,13.689747211330467,0.41593973163645137,5.17112391065987,-1.664138299087572,3.8366141981766817,g
-10.256562569163249,-8.208294437665842,-1.300633810273221,22.780081476859618,-2.544325043473644,3.8391792378393204,-4.695895164785829,1.5657475345980747,g
-12.908870807727173,-11.840652369865428,-4.617270310664936,30.61534396253388,-6.168104463578343,1.8655421456796142,-7.965900131068861,-1.0511240847312266,g
-15.965497576193474,-12.951114698873596,-8.260531293490361,35.864436293895494,-10.070498367391133,-0.6160717811770544,-11.139350761374875,-3.6063313952919245,g
-18.881443284683588,-16.39203466419169,-11.656028905595797,36.89091264207078,-13.683532158546,-3.3750607381767943,-13.829772199494903,-5.76992451787254,g
-21.14776901825558,-19.011867513159437,-14.270750743601335,33.02658291997454,-16.479576661378246,-6.112877645816289,-15.717189082731092,-7.364349818251237,g
-22.512843614970674,-20.518649311751084,-15.84667510378192,25.28380956268245,-18.180590794315613,-8.55775971327191,-16.670790409811033,-8.365711569136227,g
-23.032010531299125,-20.926383485522756,-16.4623769957384,15.875256321601219,-18.82947720901516,-10.542150275724813,-16.7934635293201,-8.850221516410503,g
-22.90717054855299,-20.47737110626292,-16.373707744827172,6.844357508209944,-18.669304415713547,-11.996963687996491,-16.345686079281492,-8.936018291269246,g
-22.25384851701264,-19.44167753356026,-15.767539473569594,-1.2000051109396026,-17.90141964843855,-12.889114106770057,-15.587950949982485,-8.748733193447002,g
-21.006249579502697,-17.958399928287495,-14.640009324019431,-9.118775017042456,-16.532047200315766,-13.174723790893827,-14.651356463976066,-8.39697063189069,g
-19.04318856446793,-16.03647669519751,-12.89522786155502,-17.793316793791668,-14.470990668771226,-12.807416973207216,-13.535398553697116,-7.9455235025900395,g
-16.396149921853333,-13.682201971409787,-10.55195016518135,-26.475139516154705,-11.77712292762556,-11.792470329401334,-12.227486424690014,-7.409234207124851,g
-13.320888018679508,-13.680069202217604,-7.850134232417295,-32.7556842139431,-8.763405517387174,-10.246913157366517,-10.827076615055251,-6.786732455944948,g
-10.165043955296223,-10.947617587229152,-5.157821068381129,-34.445232363758755,-5.8373220080516734,-8.405799445148713,-9.550190330378589,-6.101606929510175,g
-7.172163718340014,-8.418910819811549,-2.7708340649677012,-31.54954181612525,-3.2588450560954647,-6.536370031104331,-8.602323433584719,-5.399796247008351,g
-4.406079149127024,-6.285573587771248,-0.7839990606244092,-26.360637259952085,-1.061188951215453,-4.80953117569822,-8.034576479029676,-4.7073356605624435,g
-1.8433232846403378,-4.614050557823813,0.8688497182130297,-21.62127703979392,0.8297839817991284,-3.24801962824712,-7.718023952720799,-4.0077208450860295,g
0.47299914593419545,-3.3772995387818767,2.260803591065823,-18.48850172492653,2.4246958579551388,-1.8104396108690028,-7.464637296935676,-3.2740526994105776,g
2.363964640004168,-2.525255275758389,3.346006832997272,-15.932899924501601,3.590418435578365,-0.5262677310701369,-7.187689058937044,-2.5232565978564003,g
3.59569460819216,-2.0374885510629017,3.968169292710006,-11.883313430652818,4.113053633282593,0.45754108651534686,-6.9557530030709716,-1.8359233655067908,g
4.04699835404778,-1.9255089952876496,3.990139703287479,-5.213232262154483,3.8717662633121877,0.9608614963833372,-6.8906832579151995,-1.3201552342499276,g
3.816994954511121,-2.198833045300102,3.4266913677614546,2.9028831027798057,2.994567104937681,0.9063762288594311,-7.006999519062435,-1.042283045012835,g
3.1648433039343296,-2.836627524369372,2.4600261772483343,9.464841376919505,1.8289462531167906,0.40217544927772736,-7.152633947535074,-0.9746937351974772,g
2.320662507859339,-3.789133453147585,1.3213000367576888,11.82538521793839,0.7056680036966814,-0.2853449429553915,-7.122978366183093,-1.0141067447391392,g
1.3291838632482393,-4.9937582135946545,0.14093266320151,9.816231491908223,-0.2960398173842078,-0.8635548226367105,-6.852870520609722,-1.076762092382226,g
0.060388297585573805,-6.376661344345658,-1.101907234192397,5.871324114091974,-1.3465161122215261,-1.1776850784684125,-6.501135015127386,-1.1905743636936041,g
-1.6256086021885594,-7.834004430505679,-2.4872306213273747,2.9846645789622634,-2.631250202602488,-1.2829191373374405,-6.3283613699620975,-1.474920640577793,g
-3.6933646731164345,-9.216237076863067,-3.998939772005376,2.333016400000309,-4.11203819739485,-1.3490490787355016,-6.464046300888819,-1.9988716450112558,g
-5.865205286347285,-10.343341631436283,-5.441489421110736,2.56308736171556,-5.484463194145006,-1.4711590805862236,-6.778358496180587,-2.6493957140447733,g
-7.72508417125901,-11.057207060090233,-6.508961445375226,1.1870641012459464,-6.349291532035818,-1.557253266773769,-6.989802927038843,-3.154234191261516,g
-8.931947000156054,-11.283884007026375,-6.961986671517707,-3.1129852589306353,-6.474461127669628,-1.389687278400815,-6.921283969884561,-3.261675931728116,g
-9.395026887944956,-11.05541464804322,-6.769538615016937,-9.066999507278954,-5.96691263125548,-0.7962394208998778,-6.670584815234361,-2.9319201223061206,g
-9.272128375066972,-10.458460894952129,-6.091558885639698,-13.474173762753844,-5.196659187075497,0.21016134952316684,-6.532293453732146,-2.3832217127756756,g
-8.786401554170853,-9.541614528253838,-5.115110089507418,-13.588152602737248,-4.48501081083874,1.416173069376349,-6.736691105700058,-1.9527647062334161,g
-8.019161472807543,-8.269296989569087,-3.8926467782528533,-9.329229702249426,-3.814602120456666,2.520865357728542,-7.244199088607043,-1.8729892429760262,g
-6.859757930562421,-6.581980290165895,-2.3296781707992174,-3.3625663265587162,-2.854033025990771,3.3063252983536566,-7.784233792778787,-2.13048370932409,g
-2.8477725985139006,-2.2763665021014026,2.0617042569513884,2.46422844473553,0.8485885697204436,4.00131560032346,-8.149229923434428,-2.811641095439729,g
-0.17283582913271492,-0.14965917322506997,4.5918546511859635,1.9491428582542802,3.1883079102102387,4.221723493294755,-8.122969106163094,-2.9617133366135397,g
2.5203551281998116,1.633672664167048,6.943594955393204,1.7382277771425845,5.257826421827923,4.470002715338351,-8.20954462447988,-3.0639731503153915,g
2.520355128199811,1.633672664167048,6.943594955393204,1.7382277771425847,5.257826421827923,4.470002715338351,-8.20954462447988,-3.0639731503153915,g
4.870684266077694,3.0196090523264316,8.873364082476538,3.266145079095093,6.776448293453193,4.6843105191550025,-8.408521518846344,-3.2421689692761078,g
6.645473124945752,4.098892649334244,10.281516975524308,6.092208850449817,7.75297648692778,4.7632693446487835,-8.522622498517029,-3.52776490674331,g
7.764086361088633,4.9604640463385286,11.1584535518307,8.371002736692551,8.365838043669928,4.642576622547675,-8.339564109304266,-3.853351712573507,g
8.233440967723045,5.563194571445363,11.495275869783892,8.402672977868136,8.736326177062315,4.324240542427467,-7.821532716385315,-4.1266030909115345,g
8.09029608386626,5.756437766324373,11.27433925049203,6.018614786040816,8.79586725256124,3.8747649167102978,-7.128790608948309,-4.299342735882333,g
7.418744465410086,5.443571568456884,10.554151072105094,2.6503546124994104,8.388357385310691,3.404242407956894,-6.4706724623930825,-4.387952795586017,g
-22.71158946679546,-24.961881873908553,-31.19261389621703,-14.127459336958982,-28.163488030946866,-18.11141414984921,-12.870828319132874,-6.394346168300881,b
-21.541577337606583,-24.293187122506446,-29.69817441320397,-20.266900512291084,-26.240917617097665,-18.183572130402844,-12.721477749349761,-6.3493062216155,b
-20.46951769670998,-23.67527000637585,-28.247220383870292,-23.63795991127902,-24.47588630001158,-18.089417282152667,-12.791638463555978,-6.466599960847702,b
-19.5619442737399,-23.208801034081922,-27.04063315702456,-23.87783152904594,-23.154677790317272,-17.948576351821902,-13.107312176409266,-6.776877320095997,b
-18.748944300644443,-22.79626533773765,-26.055076943841165,-22.384256197425223,-22.230773338849765,-17.831807065513445,-13.559373062431215,-7.234362986777285,b
-21.18792307746147,-22.25346495522883,-25.13569372097084,-21.291219781945404,-21.427736941896654,-17.728842133665324,-14.039833025945388,-7.776168904162311,b
-23.762963415739353,-21.486745671260234,-24.18446605323231,-21.978354811040752,-20.516508616809983,-17.574112548725857,-14.552153047253949,-8.354033280843618,b
-26.470876046111904,-20.60246652791629,-23.302463590505685,-24.008134604248383,-19.570394975440347,-17.311219990399643,-15.190135820414799,-8.92619045992716,b
-26.4573006241449,-19.865894865327686,-22.772264263911207,-25.378929974533246,-18.96952781688394,-16.96604432638112,-16.01353655838635,-9.449186811831398,b
-27.100484291180074,-19.541083703065027,-22.883981071746906,-24.069447146380888,-19.135069577698253,-16.671388688322498,-16.946566094708665,-9.890784470726476,b
-25.07606442781598,-19.726989082208394,-23.72512502836637,-19.688453303515978,-20.215208775433908,-16.59338245450428,-17.79802594812978,-10.247140160447518,b
-23.275576547125272,-20.294558551143034,-25.079637321618492,-13.937202741338373,-21.95295962301839,-16.79712383150933,-18.381696325390774,-10.543897737208345,b
-21.461628568752882,-20.9523057778043,-26.50572455999393,-9.621545871562287,-23.789720201969413,-17.17059086248937,-18.623057118598926,-10.815174835789623,b
-22.524887782426184,-21.394021621021732,-27.548832792939017,-8.943794746649925,-25.127452326327766,-17.483936302021977,-18.562206477606676,-11.066099804054037,b
-23.047664567231422,-21.446306531378205,-27.962979666671668,-12.08480190281109,-25.628155095685333,-17.534405830786245,-18.2716768388539,-11.247204830581438,b
-22.955812639244748,-20.628586327073783,-27.329489430080883,-20.437473804248462,-24.79873921130081,-16.778717238678304,-17.108255066776124,-11.16578358295952,b
-22.75969561088955,-20.10053684410932,-26.794407214833818,-20.676920482208462,-24.258113449191917,-16.281890558200008,-16.273157415663302,-10.995320279289405,b
-22.583652559827186,-19.60200848580839,-26.27232563654934,-18.409042984981692,-23.826212706385174,-15.941467308547615,-15.379687798844538,-10.937764315974642,b
-22.583652559827186,-19.60200848580839,-26.27232563654934,-18.40904298498169,-23.826212706385174,-15.941467308547615,-15.37968779884454,-10.937764315974642,b
-22.343783709437897,-19.049423467050467,-25.65661767041265,-16.39614531242753,-23.263198316054183,-15.779530602319173,-14.564399240677442,-11.073473533138849,b
-25.182737596702832,-18.333019665781503,-24.8130428161601,-17.214360879016844,-22.296998798259075,-15.658766232293539,-13.9409877650167,-11.30579515682879,b
-27.898311416929083,-17.461729007403655,-23.754816991375144,-21.286709307534842,-20.90012557981684,-15.393223977931394,-13.562505975250764,-11.415949864424274,b
-30.457092071851264,-16.620742100484126,-22.69045196688952,-26.613873264559174,-19.359843105143863,-14.893671095097138,-13.42514665289553,-11.222537677866704,b
-29.846555697744055,-16.077863847508645,-21.89859332956695,-30.214202632757583,-18.111624253833007,-14.225638929793508,-13.49143344571375,-10.715199913314159,b
-29.514519557103387,-15.996498925998372,-21.526861359162165,-30.16738273327166,-17.451308218103446,-13.550917501483198,-13.70676878883142,-10.06498878410336,b
-29.480588610345325,-16.303766012244065,-21.48435492653386,-26.891147831829983,-17.32819018648339,-13.022615816172822,-14.008279324373916,-9.508523129794979,b
-29.62508900867409,-16.730848288739587,-21.527954611882944,-22.734021850750302,-17.404326954542274,-12.705854249923544,-14.338053805488835,-9.185061808064521,b
-29.809411610879703,-16.99522528622108,-21.469708209848868,-20.10212060752367,-17.357411573140375,-12.548438120024064,-14.654612842488067,-9.038548843756002,b
-29.980879769292084,-16.961261329408256,-21.30949473086473,-19.63197423431353,-17.140834015278735,-12.408431924546722,-14.91733684572834,-8.85599716313227,b
-30.144954185349206,-16.638814109991554,-21.16206354701452,-20.035402533618605,-16.928894239481323,-12.135032028768968,-15.044178181968286,-8.411755947579902,b
-30.24769562135227,-16.05188033048955,-21.06025389544743,-19.644276101140743,-16.825695721702022,-11.656214135364008,-14.901725605355216,-7.610435932840504,b
-30.13960930052529,-15.155278208855014,-20.863092375089565,-17.967015573519596,-16.69718913491707,-11.008580958646393,-14.39714037131641,-6.547273021815002,b
-29.71888329823691,-13.928756462031355,-20.405363229768692,-15.738868654606156,-16.338443883486967,-10.304288784786742,-13.647638249217156,-5.487872197963955,b
-29.134651816713024,-12.563685038141642,-19.76074635302421,-13.740239534644308,-15.790206627449024,-9.689504477874273,-13.072090604691752,-4.795403942514053,b
-28.80025355887944,-11.496034112882977,-19.316127627291984,-11.907515577317836,-15.431607556072866,-9.315274705733268,-13.231116139429398,-4.79202509571274,b
-29.089726258728234,-11.131627538507143,-19.47956822033958,-9.714539408965075,-15.676976985820001,-9.277841624910964,-14.418173970016417,-5.549590401266136,b
-26.529457420280004,-11.424000351367786,-20.20656542653392,-7.320042154100198,-16.484723066163717,-9.518967912258436,-13.205873070162085,-6.719737357992696,b
-23.831022931432802,-11.712782058177345,-20.80093743401108,-6.101355116728271,-17.133493026608427,-9.778214508511429,-11.828816987918461,-7.600598703749742,b
-23.290895539472974,-11.102727891486278,-20.30241748309943,-7.666062685854326,-16.604803086143203,-9.697456270613197,-12.002845091436475,-7.516368550681238,b
-21.161796072687856,-9.17949429253741,-18.247811519302186,-11.94037567356931,-14.405512705796031,-9.045472578655879,-10.486766873719395,-6.295431775810531,b
-17.976765007016446,-6.456185180473286,-15.159995241950835,-16.24996520959747,-11.141164069356243,-7.899576564186496,-7.995100708737889,-4.456378944580637,b
-14.937866820725654,-4.086018213680728,-12.265677855988097,-16.889002688617985,-8.213114539920111,-6.6320548948291975,-5.8058622384971175,-2.8822339624139546,b
-13.041706578467991,-3.007574198852669,-10.607265208772322,-12.331420009731534,-6.775803086567312,-5.685006424914539,-4.808058297284247,-2.1800119671167644,b
-12.356354498570996,-3.2230290493141958,-10.27729902379276,-5.151722090065397,-6.838508942122833,-5.269516361028243,-4.85253087326478,-2.218818365701074,b
-12.064277271655808,-3.8257948448207357,-10.420758765702685,-0.4390764348135896,-7.314388077086358,-5.202211057388321,-4.945168985122555,-2.235738598169386,b
-11.22819551532273,-3.7671822390090695,-10.000824850626257,-1.7131903753366722,-6.97191494694488,-5.030003507679984,-4.1172542114541155,-1.4588320065449036,b
-13.00913281512253,-2.738645888976573,-8.689929197048265,-7.8642744656337555,-5.475982412041004,-4.385800789627797,-5.330892150623562,0.23162969321287755,b
-14.708764177287534,-1.4510784132623904,-7.154374040733494,-13.855801017908854,-3.678482888704817,-3.3030880082579896,-6.256418764266473,2.1432313157442,b
-14.199545858326934,-1.0791308922792937,-6.505235683772442,-14.663155844274172,-2.9478560816954804,-2.2171924659186457,-5.358317065316693,3.2645500742238114,b
-15.392511045310485,-2.3173750950989733,-7.375899762186424,-9.226635562435103,-4.071174741927304,-1.6418273688887601,-6.16536036409804,3.024734266794308,b
-17.877056380716546,-4.810879823773373,-9.387334911640348,-1.2599847144764182,-6.592118177131577,-1.7896959411004711,-8.216599575320506,1.7096749243587752,b
-20.527899280588695,-7.39538705771267,-11.412888780500186,3.6724742763833236,-9.109392490671178,-2.432319215825115,-10.321473772109158,0.22463373141853574,b
-22.29237815369864,-8.896733686528595,-12.368996184412264,2.402171462629532,-10.27117663674761,-3.0715109610685842,-11.381806791373048,-0.5610868438476506,b
-22.79687338599996,-8.819445003528008,-11.863983612229358,-3.70909729974046,-9.63026989729322,-3.2599369330761476,-11.00980076832476,-0.35348593008769746,b
-22.348997888354667,-7.448276045227661,-10.254747691000254,-10.304561802265422,-7.717880760506427,-2.84053461370488,-9.538591220612114,0.5068993746664692,b
-21.47983557036364,-5.432668264345657,-8.206771431253777,-13.617091508301598,-5.4363992238501915,-1.967835465330781,-7.58456999165374,1.4098112204528543,b
-20.49273599378651,-3.285365892266924,-6.196301540572,-12.964972982246948,-3.3895218671197767,-0.9337972716513772,-5.613951668410315,1.9176469282729283,b
-19.34234122558596,-1.154960726902173,-4.306562025689794,-10.464535724804005,-1.6300182297244128,0.05187650561510067,-3.8015830449076917,1.9702253345876684,b
-17.81712605633249,1.0788897685622547,-2.3529399482739515,-8.872340698621313,0.1626043393140975,0.9679490488739664,-2.13334976385915,1.7901971897598803,b
-15.792782121398215,3.568323368578793,-0.14178439563842762,-9.5909540692537,2.333428980681604,1.9322616895903741,-0.5497469924412313,1.654232811260967,b
-13.35984876745992,6.316476424194007,2.3469361923616083,-12.03145566704031,4.969351816389667,3.080186658444498,0.9835693802040328,1.7250331127711707,b
-8.336961826901737,11.719970475756167,7.363789698055261,-14.29600287139382,10.418298677644948,6.037625153178351,3.7723413239387584,2.409588061493227,b
-6.21925013912651,13.740854659409313,9.38020389423558,-11.253566831082873,12.388027667243058,7.616726668355284,4.763751442463729,2.7666795138850473,b
-4.456488866171428,14.956967303568442,10.858858711454506,-5.779802220654206,13.579200787176543,8.98965962165904,5.220687420071774,2.959905538570409,b
-4.456488866171428,14.956967303568442,10.858858711454507,-5.779802220654206,13.579200787176541,8.98965962165904,5.220687420071774,2.959905538570409,b
-2.9450352216666755,15.299781742582656,11.812915815225733,0.45959574108084417,14.101854687253951,9.995593744634615,5.0513374038602255,2.9724646332732085,b
-1.496928996815652,14.935266535054804,12.381586596995062,5.722604932994158,14.224600667770241,10.60959871335407,4.414870001498828,2.9236617248946053,b
0.09283116026069668,14.234526417568372,12.765613729455154,8.997308574160291,14.253564123308113,10.935014418883348,3.7038248176649327,3.008412760823852,b
1.961904892786548,13.614228153892872,13.123059408254353,10.423257503894902,14.393578160494297,11.114897864448956,3.325972077632664,3.3612346798876613,b
4.120217890793152,13.3148143922927,13.479989318676365,11.187613622866913,14.62783883170429,11.233646220064738,3.423045823226137,3.9268919345673767,b
6.4832764126446065,13.27881713888426,13.734543668548744,12.689714648521662,14.742850673149766,11.27459953152793,3.7614128537748677,4.44214144174211,b
9.004688689294882,13.247659265102538,13.77587353870469,15.275342689479988,14.546962669384948,11.156658294816776,3.916741074668066,4.580013867954827,b
11.805126943106021,13.022648005885703,13.634859223278287,17.65721568559021,14.107329416972828,10.831358955444504,3.6253727257822477,4.186623803766916,b
15.172153150888644,12.685383856913225,13.53544905399772,17.8780516485974,13.768816216092912,10.376052121917098,3.014030496227962,3.431286552503405,b
15.52050905168338,12.587223333310595,13.783478633110985,15.110380056013188,13.93083549440988,9.994168737247325,2.507324151698198,2.719297626887463,b
15.881724427003652,13.095934066286707,14.562682962198053,10.539446869795954,14.779752115867822,9.895100809276645,2.481838232157417,2.406726457804388,b
16.096434975700454,14.289484857570292,15.793377315917018,6.472673517093615,16.171419746986007,10.149212327165255,2.9492867366218958,2.5438000235840548,b
15.96532358759275,15.846814464396633,17.17414647202133,4.591084566712364,17.719945405902667,10.655462250082028,3.5258316039857704,2.860710244262619,b
15.344763989596462,17.243488351897668,18.3914162991628,4.866558166108853,19.041907587532044,11.249610824836763,3.711713426096634,3.001498220356675,b
14.225503899188592,18.11791561181063,19.34617228561522,5.812659594654213,20.023700937579697,11.844742913267112,3.2636587198367293,2.811753625423946,b
12.716154615682822,18.527855929896752,20.22191463558709,5.68997048495905,20.91339617414376,12.486806593497125,2.379504044131374,2.463773102734034,b
10.920329357676877,18.897971887282644,21.33620514727796,3.8104501584393717,22.122607882424084,13.304358068332885,1.56827036824942,2.3427245207941794,b
8.798801173509748,19.704675409259334,22.89114622104525,1.036536572278583,23.881808698111747,14.406067984034191,1.3219639987615852,2.7904563616940434,b
6.137256279252818,21.14390241026765,24.817410312443595,-0.9706528436346185,26.05226568050395,15.79104996632142,1.8412828043983045,3.895109781521115,b
6.541366943005812,20.100733391123093,26.822166008965347,-1.1316115432633176,24.82937807674556,15.04800667938925,2.991221336608896,5.470021457410723,b
6.911478504580822,18.823386270621832,25.255689999888997,0.3895306082985823,23.19610064184142,14.138939323057457,4.459681112359094,7.211552345589135,b
7.247754201204456,17.164418387924986,23.335845338675817,2.839963233942269,24.442461145238912,13.037141119096011,5.954651628516418,8.885284211521515,b
7.550357270103328,15.1985448750474,24.328934869676182,5.9298969245516755,25.170906696467565,11.801188098583944,7.3052647424189034,10.39367741094208,b
7.819450948504048,15.709704899925663,25.103824533448623,10.027092731205201,25.57645445044518,10.511511658013752,8.454102818400651,11.713478238745816,b
8.05519847363323,15.963236616913537,25.748586487042864,15.463455416077784,25.836202635852214,11.264473256096924,9.404458990687292,12.804107775636558,b
8.257763082717478,16.030870101508253,26.19392241092887,21.93003842084844,25.9494450899622,11.73265418473385,10.17097221339925,13.572478181827837,b
8.427308012983413,15.806452209169564,26.24258241973476,28.539827745626667,25.716703943041967,11.789068217693936,10.73784761617221,13.89596216873469,b
8.56399650165764,15.091699178647833,25.701748181078926,34.270269496189094,24.899721184610087,11.337905941254137,11.023107802154428,13.667557500839369,b
8.667991785966773,13.763365450250628,24.525855589448543,38.34237995887922,23.428865997848295,10.378563965756944,10.875348851517758,12.845022125669558,b
8.739457103137426,14.824062307209951,22.883699588881377,40.38690392679597,24.901207802375488,11.32611467969114,10.137970834576048,11.49391821769708,b
8.778555690396201,15.906227765531758,24.449180680560424,40.34807213661078,26.337938257411828,12.28119678201821,8.773052116115103,9.800775212573843,b
8.78545078496972,17.212057707230787,26.242837797766775,38.186452862990166,24.727833706698743,13.415420578854329,6.969695053699152,8.039029999280926,b
8.76030562408459,18.923478197420376,25.353218116862212,33.765145107342654,23.891659479524364,14.84613981896366,5.134384319750668,6.499635214257826,b
8.703283444967422,18.55500648281518,25.17409990014803,27.253074343650006,23.947153430475346,16.607804890794522,3.7210353689155875,5.411438476891388,b
8.61454748484483,18.947181514085326,25.609133290103536,19.696446597795862,24.694279871784072,16.595410750768668,2.9827610816518204,4.871646898603296,b
8.494260980943421,17.106271253602095,23.034847846918968,12.987405900663674,22.35497689531585,14.764401950329326,2.816490925843583,4.813217608426452,b
8.342587170489814,18.04302605095695,20.665794671820642,9.017922488438536,23.347905100273497,13.193585614942439,2.8273904429548837,5.040347540072429,b
8.159689290710613,18.721627362503536,21.484499328161455,8.650949988329046,24.099550779385776,14.078913133975405,2.577153041980086,5.326638069748162,b
7.945730578832432,18.943808382705203,22.08989293961721,11.244766809824322,24.588885787033938,14.956995215363785,1.837144477938499,5.516414615124327,b
7.700874272081881,18.67135371697994,22.461620886268964,14.97006510743223,24.881284572658267,15.690535343000937,0.6721108005590328,5.566247772159172,b
7.425283607685576,17.97988382603748,22.62179439961377,17.772012511209894,25.039726632381022,16.212019117817313,-0.6807142793344091,5.515951095065207,b
7.119121822870123,16.970204703565262,22.559914403403834,18.569856426758736,25.02962631871856,16.528132876842097,-2.025286556391734,5.4212726872782016,b
6.415737840888228,14.09754737871829,21.299784800131924,17.541422224876715,23.69359284384202,16.702890206982822,-4.824593029426813,5.025818647623571,b
6.018842118175008,12.156403866831958,19.785092758183943,18.69022282680725,21.970107802394676,16.529662870183877,-6.607431619106913,4.517088672175626,b
5.592028223949089,12.606964112136968,21.029313056977514,21.150963064002518,22.997641704138054,18.318040152407875,-8.689240741653702,3.7007148648538624,b
5.592028223949089,12.606964112136968,21.029313056977514,21.150963064002518,22.997641704138054,18.318040152407875,-8.689240741653702,3.7007148648538633,b
7.687944726986409,10.261764601184328,21.77860268989378,23.43983340584273,20.339809159018586,19.880753662762977,-10.803665098694497,2.6807401505265185,b
9.248417404840914,8.156221367733101,19.21584930090188,24.213164197558687,17.784630321756246,18.991119866620426,-12.533018885845994,1.6970010347621511,b
10.484132061401851,6.59686422658712,16.958538544661696,23.533284147806214,15.59466640472117,18.118401200450922,-13.53338018643974,0.966338186965235,b
11.57255735158164,5.6624842489114675,15.083641307775093,23.01413352358569,13.749121829629937,17.34318914459217,-13.736999540882413,0.5090391971239285,b
12.562523278074712,5.115082353660077,13.360569989609896,24.750961721326597,11.938610351286023,16.561965319565278,-13.386522017593402,0.10540667049556803,b
13.382207341488652,4.513043910188755,11.415411720849203,29.702029958255327,9.765966134870844,15.537576069501416,-12.86468511065099,-0.5729386130105313,b
13.92849666717856,3.468352947815352,9.01416560368182,36.62813399444804,7.058201506520592,14.046278441742341,-12.441046712894273,-1.74753772812896,b
14.15772921445527,1.8715142794088173,6.253549298506289,42.536636205989545,4.03568620756928,12.02303265840454,-12.131813539949285,-3.386605290288906,b
14.118665342704892,-0.06399539687379133,3.517940686260983,44.50267313707576,1.181106939395701,9.618507075524413,-11.773019221133572,-5.229141463636753,b
13.931614224400443,-1.94645111185407,1.2482172832495433,41.464151331984226,-1.0618193525851547,7.1307996325679195,-11.219544721342471,-6.95101015627201,b
11.194832225106266,-3.425859922280876,-0.29834433938404264,34.55516502667775,-2.4979297621938494,4.854591861073231,-10.484886296477928,-8.33331287015076,b
9.104807252924145,-4.348987860496594,-1.1361250939347989,25.946335239299124,-3.1846363255536794,2.958914643619429,-9.713863743645629,-9.301216967865482,b
7.538443690946627,-4.768904058204106,-1.453560306567034,17.413882186981045,-3.304633723608544,1.480438664571309,-9.038745216675473,-9.829820514148137,b
6.337867996369472,-4.828285046978805,-1.4283401199553865,9.703206849419816,-3.0177350753633396,0.40586145329883694,-8.461183699908009,-9.839063054413819,b
5.4211716356539865,-4.619966798393942,-1.1054429759516533,2.781989753796397,-2.369270272313369,-0.25887091096090425,-7.8660863220453905,-9.194502853918705,b
4.806548056575558,-4.1346263635935205,-0.4249080894066462,-3.5068639647754365,-1.3168197744833054,-0.48905377354135515,-7.150300352326431,-7.809148834150983,b
4.544599787301343,-3.320365253949369,0.6465523246825471,-8.910106020554256,0.13563846256427575,-0.279142155312096,-6.339921891168556,-5.740921587931834,b
4.634063577951688,-2.181170577403917,2.0124007070366527,-12.734041098521148,1.8305738366919662,0.33158896605487176,-5.576996791457246,-3.197945511295252,b
4.993700521947194,-0.8269898319380886,3.4601629048898226,-14.355267283817383,3.501085339237347,1.2539336816698303,-4.988901064793322,-0.46025494169867276,b
5.4864560893417025,0.5452592972239788,4.758572634565369,-13.730747954620636,4.906635479683589,2.353995770033227,-4.582877219452607,2.203081830026696,b
5.947880687262215,1.703286820306122,5.737526164725999,-11.285730524725762,5.892988016434247,3.4691686986470556,-4.28371312885565,4.554493077119021,b
6.203863938413283,2.432513372002016,6.29670171275504,-7.355165697434328,6.340870138752779,4.430014456221566,-4.069286558107445,6.35259680502503,b
6.09860185231482,2.5877287002664717,6.372641592651973,-2.0176180708038194,6.132006727440577,5.074300792659837,-4.04197825755491,7.334715404124623,b
5.534035893012639,2.1399243522509064,5.921286809418976,4.3809257122437995,5.2105136013808515,5.262210459960514,-4.340553415538805,7.282504036258973,b
4.493572905713945,1.197703339580978,4.938720441125839,10.770309091600316,3.6587463719443294,4.9186014209929745,-4.9698932135890015,6.144810855385924,b
3.0379427215826658,-0.014215393396412512,3.5010101110523335,15.741055640478866,1.692759618768724,4.086097320950113,-5.715793408246638,4.10739912294653,b
1.2850587609174837,-1.2165448317726124,1.7849832547757027,18.486322462154178,-0.40533564614090684,2.9231283059582713,-6.236206659491476,1.5265332693490077,b
-0.6235462769832639,-2.1607302966440995,0.036920359546270466,19.34822568145851,-2.3636298376646385,1.6180521632952523,-6.265576633724143,-1.2327367967879774,b
-2.5742325668973587,-2.7121231553332543,-1.5110388417199454,19.47237830153096,-3.998010106332758,0.28605828070333505,-5.774069213072074,-3.926703855614986,b
-4.523391773445924,-2.8902159223778625,-2.728333697340382,19.8758909359302,-5.2702378627565585,-1.0578183906906382,-4.957649964378463,-6.4453789698331265,b
-6.4825759443065465,-2.830683126417576,-3.6116655485414624,20.595803841650234,-6.255962059819242,-2.4348365641241414,-4.0691348131012255,-8.730122093922795,b
-8.447117295389774,-2.684484176931642,-4.2295449001485395,20.561252699376183,-7.018372042388691,-3.8153076706394478,-3.2329266457974493,-10.684262795520038,b
-10.33594424920878,-2.5260123476074283,-4.6355296568389734,18.47240543878444,-7.513779267945859,-5.0804266077911,-2.4010830982466396,-12.148355131440692,b
-12.005183948977933,-2.3378277226026425,-4.820724094980753,14.114610057028742,-7.634985078090435,-6.061901107715997,-1.477570615370246,-12.953247891611506,b
-13.326196897951784,-2.0720780253064817,-4.734518938328722,8.831802874851698,-7.329326283684987,-6.641254659133845,-0.4784883745191933,-13.005775337234045,b
-14.265686654647464,-1.7282074280714212,-4.3481877136043705,4.478963454559863,-6.655973063810407,-6.842666791405891,0.43165629183584453,-12.335074559419443,b
-14.91143791362586,-1.3849679476059749,-3.7113468386099058,1.7931232577807044,-5.756224384577413,-6.831478496610413,1.058669343777569,-11.060059879184678,b
-15.423507674085792,-1.168000092764077,-2.9600644120093467,-0.14946677555122623,-4.804487316860488,-6.794919563127124,1.3342597137263534,-9.314005725334098,b
-15.934814991799081,-1.1814254324042763,-2.2677100677604143,-2.883785723586611,-3.966010469824945,-6.800937965739711,1.363458005730877,-7.202990806574512,b
-16.467267506526884,-1.4536481678726618,-1.7694581394576496,-7.042620512341057,-3.342725256469948,-6.765703572785152,1.3255572830349638,-4.828219738689608,b
-16.92929877903744,-1.9288658282477562,-1.5069172309107401,-11.77614162618432,-2.9344219077951172,-6.550356084545089,1.3252714784541761,-2.323850682222263,b
-17.19237589892187,-2.4906244741535213,-1.4151999823962977,-15.456594043047563,-2.6608608868401826,-6.080571723555077,1.3344759357765543,0.1470052881734974,b
-16.853501726879422,-3.2269493133327116,-1.1124440669610263,-16.52618312948446,-2.0809004017995636,-4.547408806125626,1.1493288721990274,4.382304891301414,b
-16.272944294346335,-3.0706429922552188,-0.5812704859009747,-15.344960807799016,-1.5586394424830188,-3.64542093463893,1.06396224274111,5.857020908471173,b
-15.505674078265695,-2.4765175825394197,0.2546474722373686,-14.347807053446733,-0.8282577486315124,-2.717099072850494,1.1113696823932908,6.653628582124929,b
-15.505674078265695,-2.4765175825394192,0.2546474722373686,-14.347807053446735,-0.8282577486315125,-2.717099072850494,1.1113696823932906,6.653628582124929,b
-14.659533860083183,-1.5845622327025075,1.2493055691263815,-13.182982621868717,-0.024264822030773757,-1.7829326724810688,1.2254210747686884,6.553879655202543,b
-13.84935470050011,-0.6679023673791301,2.1851055383653564,-10.62873974119017,0.6238292510013459,-0.8948338936912357,1.1827508527577082,5.415604921840766,b
-13.152238305432537,0.01675774356468098,2.9061567755930393,-6.047159778304746,0.9670439996525871,-0.1610090175354096,0.7792103307526521,3.2872208708242403,b
-12.579062864864039,0.3811546632148036,3.4013508708006484,-0.33082942038925933,1.0502446096750462,0.29966566727363003,0.03248553496583177,0.46092977196692964,b
-12.086056667476385,0.5403615644295192,3.77501448732214,4.64498447553205,1.0455322265591414,0.44468578346807003,-0.7822085198079194,-2.599511837257216,b
-11.62058323693644,0.6946763503972616,4.133182153015404,7.424886561306328,1.0890127448399791,0.34225119411242844,-1.3187083642383013,-5.442618668789569,b
-11.1804048743259,0.9413257055333588,4.4741437953030205,7.8583062499242455,1.1747718913808467,0.10632816183937818,-1.4244215264886724,-7.8064550199649005,b
-10.85051399924111,1.166231632186631,4.670208546489209,6.839386373664129,1.1681646970300978,-0.1965307938015719,-1.2542399487729932,-9.647168188519545,b
-10.771235028034278,1.1193271666810887,4.565570951280132,5.3624744236015776,0.914540110334919,-0.56430706526333,-1.1249209674383285,-10.995584258372187,b
-11.035124458866884,0.6279615348334119,4.11833883397322,3.7646865414881434,0.38204112513577887,-0.9926184960047646,-1.2334288380596234,-11.781155567149694,b
-11.594925811169997,-0.2292110898884097,3.4590831079612543,1.74450004949446,-0.27193992703585124,-1.412076325494938,-1.494494404421022,-11.795183868258176,b
-12.280343205394132,-1.1426905560199998,2.8019951237925413,-0.9223111778007634,-0.8077491751716387,-1.7009963868731552,-1.6460608498901226,-10.831589465093169,b
-12.917351529216148,-1.7692896384386791,2.287646928026794,-3.7510401979869004,-1.1129528653736096,-1.7593730564657473,-1.5194175949784778,-8.884403129053075,b
-13.436816457947135,-1.9365801418102464,1.9039246678076136,-5.81554947711806,-1.2917811582488223,-1.5794553740568078,-1.218386544321807,-6.239756013037859,b
-13.883527081588355,-1.7030475763131627,1.5413025978522377,-6.723504402136079,-1.5300628455307768,-1.2564402698904258,-1.0454246599053307,-3.3866256160113197,b
-14.351427349213006,-1.2698749554660669,1.0982983248826144,-7.091609891053524,-1.9090915616070276,-0.9238847121698877,-1.2528903935493743,-0.8039003175536502,b
-14.925925558713757,-0.8538930851981371,0.5253304268167772,-7.767769104566935,-2.396800435032388,-0.6594677741907534,-1.8511466432403747,1.2268221679186868,b
-15.665427777294692,-0.6185911038067547,-0.20810332217374178,-8.645579907947333,-2.9947737382902484,-0.44929237028987934,-2.6375500236426945,2.65018011799336,b
-16.59626466849111,-0.6735198271657362,-1.1493855683751426,-8.571125319686905,-3.821242356574431,-0.25402313449779734,-3.4012170216061555,3.5053705650131404,b
-17.698561863827052,-1.091354316843605,-2.3415715590696573,-6.566485139342885,-5.019195467548483,-0.10547274861770836,-4.105212783157631,3.7696523617912923,b
-18.891177618810254,-1.8968013092120721,-3.760255599730152,-3.0142321861667147,-6.601043753425967,-0.11548584338662815,-4.880415770594547,3.321880701725604,b
-20.033654174878883,-3.0283441897752845,-5.271949506267051,0.4640896137518683,-8.38428850677051,-0.37746454218020864,-5.843391432516165,2.043983696885534,b
-20.958503703457897,-4.316780482200423,-6.662245065684717,2.2668653474856755,-10.057752432663449,-0.8672050883387958,-6.9116461478013775,-0.04493787152031299,b
-21.537517291708447,-5.524034134437022,-7.726133822231975,2.0579990322861432,-11.329808340416047,-1.4459043037152441,-7.7917709037277,-2.733424820831126,b
-21.75435301372225,-6.434157505804395,-8.35862257763515,1.0523769887946992,-12.076887267570118,-1.9551616981424214,-8.1595857624831,-5.6726462275952345,b
-21.720309172807255,-6.9317370493926544,-8.574809401921838,1.125870536948005,-12.382187969739507,-2.317495997582509,-7.879265335144143,-8.49806726893282,b
-21.594301942767977,-7.006059557887019,-8.444214193490744,3.2757183106068135,-12.403608870051128,-2.5731004306952987,-7.077685982994289,-10.943526038205638,b
-21.45819433098383,-6.6878848785720475,-8.00276320944497,6.58437460898679,-12.18016284708367,-2.8334759254476363,-6.026266554030256,-12.88389024539455,b
-21.257054491775758,-5.98771355972766,-7.226992800148496,8.746135166594147,-11.586902412265374,-3.177278497283355,-4.953192069079672,-14.294072687280112,b
-20.859097852791066,-4.89457678287126,-6.090765693077584,7.914924024119588,-10.49501735568639,-3.561305908499933,-3.9517138609376294,-15.175939611764766,b
-20.17796198785347,-3.4308882611124716,-4.643970493055498,4.216285538270364,-8.953515374620677,-3.830226733678874,-3.0343185349220265,-15.516423162339738,b
-19.25418651642587,-1.7113305113669992,-3.040580294267516,-0.4706632455720083,-7.202162585737919,-3.8295953038658546,-2.2370990944375797,-15.289493366080587,b
-18.245027695701953,0.043576302272063216,-1.498534109004599,-4.057426121069796,-5.540555342148039,-3.5221891500407088,-1.6514443003975032,-14.475855115184308,b
-17.34543959280294,1.5565899057474157,-0.22454013495316144,-5.558748062947318,-4.202278851999043,-3.008064860827859,-1.3605484946247297,-13.091175002606926,b
-16.69456991014571,2.588890378732194,0.6570580469787307,-5.29368353004161,-3.2968787620683657,-2.4531106712375537,-1.3625429849296737,-11.228649809839709,b
-16.318378624892915,3.0363233964839162,1.1453187748671514,-4.317340093294019,-2.790694953517291,-2.001316625259867,-1.564845695605378,-9.087506149210492,b
-16.13896213473879,2.9700475773121355,1.3535082707318111,-3.6911847596046976,-2.5303951634333703,-1.7192321196799156,-1.8541115825586012,-6.937187826985138,b
-16.04200366084503,2.589596980831181,1.4437678707048685,-3.8563249968631452,-2.3353741501009777,-1.5802647880148124,-2.174619608845771,-5.0221991889566855,b
-15.952186441848871,2.1127680312080983,1.5364788245068857,-4.358935822067249,-2.1059000308106848,-1.4983030481675068,-2.5431635685183114,-3.4829649205007107,b
-15.86378695886186,1.6725029367361064,1.6548424364121104,-4.225574819209188,-1.8502821011114476,-1.4066623363911648,-2.9830896413836046,-2.3525493597402742,b
-15.81460603662119,1.286786363475643,1.7485229220062468,-2.7879185455196542,-1.621308780446252,-1.322791212759904,-3.430942952981119,-1.6099116379528078,b
-15.83177415687049,0.9155856918272487,1.7813048141905188,-0.24303432504344472,-1.438233003575583,-1.3294431254752177,-3.7034687231000136,-1.2334992267047071,b
-15.909892843650985,0.2866621009377467,1.988962703616735,4.21450336295085,-0.9056553458272131,-1.7701350370408409,-2.9241635274805633,-1.632597726843724,b
-15.819463893039961,0.23543169704731842,2.4502678264577455,4.2002996166328925,-0.2753699863601547,-2.079089357395765,-1.8452484192189504,-2.4927839599954176,b
-15.619004962991312,0.46685179284982664,3.1926772832415287,2.3977146100736078,0.6772465395353674,-2.3072829654719453,-0.6275742086013663,-3.8309109331441094,b
-15.619004962991308,0.46685179284982664,3.1926772832415287,2.3977146100736073,0.6772465395353674,-2.3072829654719453,-0.6275742086013663,-3.8309109331441085,b
-15.403172094231653,0.9231411246413709,4.038542346178798,-0.3763926293434223,1.7796536224337731,-2.3984032204106116,0.3945462088470232,-5.607942882713327,b
-15.291490148261389,1.461751265413731,4.741157726867204,-2.961986691137961,2.7398295299373503,-2.3730628688136077,1.0330749394151584,-7.710573786382438,b
-15.324049544304682,1.9632178302913732,5.152394499676715,-4.729041758861934,3.353875594191288,-2.311722857612485,1.3521943845302435,-9.947848910897974,b
-15.417958249018898,2.408195737602768,5.310407973457237,-5.996258848988387,3.631964420113602,-2.292279646175049,1.6127651432757069,-12.054574427316501,b
-15.428496893016098,2.8583293933044973,5.373787626186013,-7.527446697666815,3.7271851484487826,-2.322505685919992,2.0867502817400094,-13.728852350133343,b
-15.266872942987472,3.3683764150744615,5.463410843567624,-9.66711645444953,3.770208522977414,-2.3341601948550195,2.8696265526163396,-14.717232541052008,b
-14.98225318961777,3.914200831334069,5.54987299169472,-11.991583782994871,3.7735948079295065,-2.249071432903539,3.826332481555979,-14.896865922653891,b
-14.74272932829771,4.3992687989647,5.481444930344578,-13.636691197961866,3.6515284103266454,-2.0455500873386505,4.707636595308825,-14.281525357839467,b
-14.71862891617613,4.731374459315136,5.128715377458238,-13.850432661435871,3.30705347744222,-1.760964238576085,5.343139385502774,-12.948098297129338,b
-14.946124783346516,4.901402498179457,4.523740701309757,-12.425826955957316,2.73350264791841,-1.4484296320832413,5.760120033061004,-10.963782759852435,b
-15.282242513214362,4.992926164409622,3.870481889235424,-9.862233678180788,2.0628228425361828,-1.1425457701521515,6.138241307507167,-8.391801810620745,b
-15.5051447303448,5.110819794620538,3.406632730603512,-7.048776753051742,1.4885061890883509,-0.8515476879123085,6.6407057904218005,-5.3724236565191745,b
-15.488912486242288,5.291193266084256,3.226338660523708,-4.544416701409493,1.1003582427240555,-0.5654840745554666,7.263722273668987,-2.2007435047366655,b
-15.306201084868809,5.473009762120887,3.21369970049779,-2.133547235350883,0.8003094226084283,-0.2821604554995453,7.8331526782822944,0.687068966498978,b
-15.173684235335761,5.551715090529766,3.1425047045854404,0.7771597525439395,0.40420484765355036,-0.043929677301279835,8.147677001031116,2.844906434574483,b
-15.29496817403429,5.458223046789025,2.85280652513816,4.357672271288196,-0.18338889381342416,0.0565198660972694,8.132398957248721,3.992141950689393,b
-15.731306692682534,5.192713439066738,2.356954860271773,8.084272786807821,-0.9082911477867087,-0.0724072141904257,7.863051815120441,4.104402319890307,b
-16.38508361817682,4.798176065874699,1.8025324864824293,11.165179103807475,-1.6448081722946764,-0.45681842182569293,7.457789874509797,3.3504695609101587,b
-17.08448007891318,4.315890512665671,1.3434665799240388,12.992033827235554,-2.2910312088524267,-1.0452847835261327,6.964830088352976,1.9441793877010376,b
-17.69552313585244,3.7696153403524413,1.0325417800704242,13.219815123046857,-2.8033233211517095,-1.7469332542662588,6.364717422120843,0.05464565701556321,b
-18.18384011455816,3.18781801113688,0.8134025716418114,11.754434986936175,-3.1880452435943507,-2.463451510806901,5.679839448266707,-2.156845288213168,b
-18.593376559573986,2.6352297541898175,0.6003406145481,8.861440934717603,-3.4706763295511407,-3.0942726792256283,5.073961406813825,-4.446000550682968,b
-18.980076635718042,2.2128473724572806,0.36086352694985396,5.166639213072275,-3.6517732193397405,-3.547307738738442,4.824469437300317,-6.468648412455005,b
-19.37714346155919,2.007758168430948,0.11914595882944815,1.43856858696994,-3.706176084566677,-3.770667738953859,5.152456466479576,-7.890225368886066,b
-19.822521305942054,2.0225662681832004,-0.11723796748120285,-1.5794438051102961,-3.6650398493418734,-3.7759863604744366,6.025037876461005,-8.554139226988857,b
-20.39186615346089,2.149689541169606,-0.4172719026852968,-3.2132190744216302,-3.6885514909958923,-3.631853868152875,7.099586145686969,-8.580135303256851,b
-21.164567052717906,2.2316292777889517,-0.8905381943095705,-3.101043222032898,-3.9908531254068107,-3.4409242740404684,7.893500836202271,-8.30071272386976,b
-22.135834183813632,2.1730423956437575,-1.5761127374249173,-1.6527429550296624,-4.648390839490288,-3.3095432990110063,8.080517452960262,-8.05724798794962,b
-23.166108034198118,2.016517388634895,-2.3640425979620847,-0.11327412054837424,-5.493567882832644,-3.300809075205528,7.6902264401498455,-7.994390030680536,b
-24.030526478040393,1.9175419033652374,-3.032472338796934,0.15615056095255825,-6.214533663961701,-3.3909538553148773,7.048063118410008,-8.00916096088091,b
-24.535481503813806,2.032948060263686,-3.3769223831309447,-1.3905313179857786,-6.558111504067955,-3.48152757175932,6.500722939854344,-7.888325397616373,b
-24.61297403736292,2.404781916317911,-3.3261097021579538,-4.239293389436865,-6.455363112925001,-3.473700043517206,6.150333493255422,-7.502791340606473,b
-24.324851605623827,2.930408133821375,-2.9493327032218426,-7.398614182865279,-5.998857333331988,-3.330659541550485,5.813255760028718,-6.886500349653114,b
-23.775173403239055,3.4489537827143115,-2.351366855268279,-10.166477540697318,-5.3171654909438155,-3.063347577235151,5.2266907824480215,-6.1552860763023105,b
-23.00071626380395,3.8758642002626518,-1.5525714411601108,-12.47389943949747,-4.440199961224028,-2.671520231748257,4.311924292129315,-5.379507628283973,b
-21.94127145490052,4.262694873292975,-0.47592305333198415,-14.660480428207904,-3.2712331258067437,-2.1205028847726433,3.2586943117014897,-4.5486641324939985,b
-20.531821135859726,4.720041397921732,0.9322697529369843,-16.865278963396886,-1.7303073252040246,-1.3766326627609504,2.3638615377523067,-3.652375608018583,b
-18.83484828865281,5.277429414003415,2.560787181442015,-18.48322025952094,0.041842245592664896,-0.45734018871203963,1.782204064760317,-2.7851217216106265,b
-17.072995659299252,5.82307047634235,4.1227465625999224,-18.289140951638906,1.6554060188114028,0.5456407298680731,1.417376963717882,-2.1675302611710983,b
-15.514230681852945,6.186302259316529,5.309932716598724,-15.359079787412174,2.7069312236142435,1.481055781155345,1.0397937357312932,-2.0535271328567335,b
-14.30967834941498,6.282126792872267,5.987952938585723,-10.006643463539298,3.07134924141503,2.191709668298961,0.509797508086846,-2.5874614125535365,b
-13.423517870730473,6.182310877959732,6.269453671188802,-3.7704564530126774,2.971865962099096,2.589024501156004,-0.09855771359919085,-3.7221323236597925,b
-11.973628845741752,6.03021771242805,6.641037248074615,4.7670763140660695,2.8170357109545696,2.6160932769567684,-0.7688370223018477,-7.028724199925877,b
-11.190307164425437,6.118878938447482,7.018614945084162,5.761653133199728,3.1309938521156324,2.467085722761789,-0.7214535365883069,-8.904970423810319,b
-10.374551198233041,6.237621605409389,7.480267115644867,5.089588780543865,3.6393139039531675,2.339737985978276,-0.6116190611808989,-10.863160578077277,b
-10.374551198233041,6.237621605409389,7.480267115644867,5.089588780543862,3.6393139039531675,2.3397379859782754,-0.6116190611808989,-10.863160578077277,b
-9.574193224786178,6.323363352006541,7.955391856442892,3.6717020840217103,4.220372596791321,2.3049563534059985,-0.5721673046358301,-12.825094475399059,b
-8.789737426283336,6.411706444216196,8.469172400109954,2.3400159590170095,4.861534620541154,2.414362762882061,-0.5558541782214654,-14.592065392481251,O
-7.9859192407908,6.593721954290484,9.117126810272982,1.5081352500228324,5.667668769575896,2.6729402402153246,-0.3888238349564381,-15.882535525422238,O
-7.179778428045756,6.884034914286988,9.936678288246174,1.218353229827386,6.705517544513986,3.0210959340148102,0.03125365705848164,-16.451600529805383,O
-6.509862874858885,7.136313138644532,10.807523262722741,1.4767162416797137,7.836248223771702,3.3587933161741423,0.5822018144713189,-16.200719818768086,O
-6.193215344114667,7.108118732718269,11.492200186882663,2.4030986533088647,8.738811160550206,3.590794892890764,0.9633694911695125,-15.205786450256227,O
-6.387375050582627,6.631430135131099,11.79367928347981,4.034978532738178,9.124158003505613,3.657322236142123,0.905712728482019,-13.656564381507982,O
-7.071548160853825,5.7404822452267865,11.696572572933526,6.158264145365013,8.931636786197727,3.543225537559194,0.3574741002281653,-11.76434362360921,O
-8.040021276831997,4.650898782333702,11.37924515168307,8.397776962529864,8.349162064143105,3.270605830449391,-0.5123102662706128,-9.712128696128861,O
-9.002309946168278,3.61775003190685,11.098263763267909,10.322563186018405,7.695397938908327,2.873222558039456,-1.4795971873234415,-7.6715298585677685,O
-9.714530527217411,2.79078522277977,11.03969572975052,11.433022168745609,7.2734827664751736,2.3683431093758585,-2.4481502896498415,-5.838836494787512,O
-10.06075067092431,2.1704452860466183,11.241532728019049,11.325108921802588,7.25095322112684,1.7618686165229565,-3.4998549935599654,-4.429541514456512,O
-10.037325443013867,1.6857331321951428,11.632606908174854,10.104457876955891,7.611105518837992,1.0897582178098335,-4.778743253708532,-3.6271769329447032,O
-9.65771199549219,1.3260406222450307,12.146195358361057,8.508593798843625,8.232086366171472,0.44299227384312384,-6.305878749962398,-3.5342655969755654,O
-8.868043594087196,1.2122646856749255,12.803212237738176,7.359581442613266,9.043989886415211,-0.06730975571549425,-7.881998001391804,-4.164593045664215,O
-7.568391231730949,1.5300520087308613,13.680597312170594,6.86936554492668,10.090785156006296,-0.37641353676530453,-9.175335299442287,-5.473249091388469,O
-5.732889870020045,2.3643322211060753,14.78783984835527,6.597521666867673,11.409946326409294,-0.5019631655704029,-9.939145299374076,-7.392752840539158,O
-3.5115212337704795,3.5744364492084486,15.971026132667172,6.052122319600267,12.869875687028706,-0.5295930026134431,-10.179492467475608,-9.840253237099471,O
-1.2070368116726358,4.826675744272959,16.945753695895498,5.191714502406044,14.162208121176718,-0.5725735770091052,-10.125944332008363,-12.678538257623883,O
0.8636756806265303,5.770524997248106,17.446371798238438,4.338673684193636,14.964202069906625,-0.723368227703096,-10.027766457265239,-15.65635646852374,O
2.5253495445650116,6.231625462899649,17.38482480555993,3.6856816819206877,15.12828172552776,-1.0027555934737125,-9.943472660228274,-18.39483295238825,O
3.822662864571337,6.291380309816345,16.91101423111249,2.83534341158486,14.780137443374096,-1.3319091772888267,-9.684551221753328,-20.46876765997988,O
4.980294467731198,6.20841374596529,16.335663086061544,0.7372319335318718,14.284671045144274,-1.5578826578523095,-8.946914826451902,-21.548652921652316,O
6.265410197542733,6.240563904641147,15.9626605420364,-3.7370953359946126,14.071701804397293,-1.5185823093081137,-7.534762883983308,-21.50530772336029,O
7.834991535597726,6.490515236262224,15.938563340974133,-10.75402713247173,14.388440838704463,-1.0974560137161504,-5.5284775579539325,-20.40966549357212,O
9.67256615422902,6.88266235197609,16.220297066858638,-18.842562053243192,15.160162814652821,-0.24469711640507313,-3.283792196335542,-18.449859150956403,O
11.653886725913752,7.278361203927415,16.67406819276976,-25.434298477758105,16.099149063415492,1.0177434010345814,-1.2548758208254154,-15.839228214097478,O
13.675727866360427,7.624040669741499,17.213494008658408,-28.4189655207547,16.966029018123763,2.5996538623571435,0.2453339729856477,-12.769666350767835,O
15.745921403917581,8.00652647370745,17.862061149516997,-27.453278917572213,17.734070031619915,4.372098258234319,1.1849621956828265,-9.421157994390274,O
17.98771076952438,8.580387746251132,18.702516724298015,-23.959511137712347,18.5350268469987,6.218468600818831,1.761665241993525,-6.0058726433623635,O
