Fz,C3,Cz,C4,Pz,Po7,Oz,Po8,Inst
14.306647711343228,8.573737140029321,17.0082379196895,5.202000809743563,23.62739560708984,2.0408074176140394,-4.379097601096925,-2.5254095207119596,M
15.275555982842215,9.351789185513855,17.688229823478043,6.65361266309541,24.009086202716123,1.9716824372342834,-5.419587541331844,-3.8721985581989977,M
16.24806893016784,10.140663689652717,18.14379158038991,6.962365234109635,24.17499683968547,1.8449491744158588,-6.102334700268349,-4.957214338613098,M
16.992267739265813,10.714015931823333,18.215328684271586,6.0384669982464185,24.03232367819473,1.6694922548608555,-6.742577511921214,-5.897991650950974,M
17.314307152839376,10.973354330033894,17.858844821873298,4.0581892798755845,23.699099009828718,1.476445868122507,-7.522026555024359,-6.820969616651079,M
17.18319670328085,10.992180915972076,17.19086754674757,1.3011108068862505,23.194057412874347,1.3202436199313374,-8.363835757466555,-7.721236612669962,M
16.74298331453324,10.906874846987154,16.418078836677854,-1.8015967528049657,22.45111482372479,1.2648488171204075,-9.036043368197163,-8.48292083920332,M
16.208985831390137,10.771608377593457,15.710138602306529,-4.478410240935059,21.631524001972082,1.3678238156554028,-9.367209562848021,-9.005364775504995,M
15.725077202123932,10.510507071889553,15.10855629997145,-5.85756314068228,21.040525056126143,1.6390508714835401,-9.407421034081185,-9.298633890050795,M
15.293142206331343,10.002536236141136,14.53970544445308,-5.6818207731186545,20.6877144269813,1.9998780655502881,-9.395114378035922,-9.460999006685928,M
14.829727074281028,9.216818575725432,13.92148082674304,-4.663157595291905,20.28812455314879,2.319345502142377,-9.540345610618303,-9.573125705546921,M
14.291140565215704,8.278115305758337,13.271179316237014,-3.9147503799555627,19.77711533226552,2.524654865088064,-9.829843924340501,-9.619567748774282,M
13.74893777229386,7.411712861103213,12.7195491811501,-4.056218229127753,19.472448006524857,2.668829796852459,-10.054868727819988,-9.507238570693769,M
13.354285289192504,6.824994154556146,12.425487652348476,-4.918521045378031,19.60746263985829,2.879158468830807,-10.013232683450783,-9.145592225376237,M
13.231410662795952,6.625144180249625,12.471873639902835,-5.909219165201543,20.04009825761934,3.2555699349821565,-9.651677035960567,-8.502742552766884,M
13.384190462197157,6.815871649667284,12.818779381832547,-6.449471437198662,20.570670947537792,3.8220659611154746,-9.033050691708862,-7.601208540270562,M
13.674434516578923,7.334597854283575,13.325730203903793,-6.190497077015277,21.202255704141912,4.53437213538865,-8.23903345195249,-6.491066590475166,M
13.883994305072653,8.075009036429899,13.812010474335912,-5.091244938464252,21.872502606234157,5.296180548989055,-7.337513311030243,-5.245768698201987,M
13.82490316197024,8.887581561010727,14.120366439502641,-3.318310901617744,22.24599715471297,5.987657065224556,-6.396057239842387,-3.974473100269576,M
13.420823521643186,9.588758317080243,14.152409985915204,-0.938292664798556,22.055814106937227,6.522023233167137,-5.475449460705433,-2.81507277557128,M
12.694708114922097,9.996036864118164,13.855444315956106,2.2375824263083186,21.413907513015978,6.8802716574931395,-4.619545862520507,-1.900591690545589,M
11.680851450003699,9.972670472596487,13.179638840973714,6.344144467064628,20.509298483949877,7.072333791363081,-3.8757072330586446,-1.3306601231793065,M
10.354481582625736,9.455702884622962,12.058074088509212,11.074011164505787,19.219777162248615,7.072018763261218,-3.3076935895886095,-1.1752492096497895,M
8.64779017396848,8.457630994664912,10.439258798652794,15.819061272019391,17.325243576735314,6.810778334230463,-2.9643072698757402,-1.4979459727404631,M
6.530525678437139,7.053312899043422,8.345263103204758,20.160785595714447,14.922145656259081,6.224006543801481,-2.850870763453135,-2.358627441847939,M
4.085203771420017,5.372003810613853,5.908880789232417,23.944205521372055,12.31261438582661,5.281283722928082,-2.949252533530508,-3.7707497978472184,M
1.530437200172296,3.6002520760000665,3.369486850645244,26.802903530472356,9.650369921986165,3.995639129692146,-3.2409449699734276,-5.636273014949426,M
-0.8206051454563619,1.9735489396770878,1.0278972940986812,27.878917391630136,7.047963996220183,2.4574595815453986,-3.6871360986520814,-7.719244232221778,M
-2.6616777040989055,0.7275687400046258,-0.836585733635348,26.230270309854138,4.897928358612818,0.8687270181507512,-4.219698069552204,-9.702331672766922,M
-3.815188157053875,0.01687767468022443,-2.0611378039931885,21.504999623097348,3.66521114202885,-0.5022074424223687,-4.795883485622458,-11.299611486784517,M
-4.2958037089035574,-0.14337354888498688,-2.645753826321149,14.255132061980664,3.366013866565993,-1.4372198848642423,-5.441142037969804,-12.34032305747893,M
-4.262572150289918,0.13959468053401186,-2.7068255848169938,5.789761187730375,3.6020696829322096,-1.8462974227486626,-6.1844241309523245,-12.763031067408162,M
-3.896187944597389,0.7192932905846264,-2.3706032569353708,-2.2665194419258983,4.11316405109684,-1.748994956731962,-6.952812256623064,-12.549070476378178,M
-3.297487589284946,1.4929635186613934,-1.6931733908646538,-8.627837072651921,4.9564186186639825,-1.2191907061993943,-7.579038412606994,-11.677915965820542,M
-2.4712563869060657,2.4238489293826944,-0.6636627497161163,-12.925665557735593,6.140598234441768,-0.35274121690555194,-7.92674825269803,-10.146593242916536,M
-1.3881105731872077,3.4979257135059116,0.7237781415117011,-15.66668689944026,7.478585870149326,0.7586661225590954,-7.97786680117611,-8.017132470936177,M
-0.07730154428201637,4.6612972826238055,2.385151276254166,-17.508997977595214,8.886746116943405,2.0577537619988386,-7.7890857840538175,-5.430995473162684,M
1.3066261925646883,5.794678058344455,4.107584178971182,-18.611172959135175,10.450954479630019,3.5096215288398733,-7.385878239268878,-2.5704913496808857,M
2.4990445753376944,6.751359075743096,5.596828104405292,-18.699095531916832,12.047211756857404,5.040937091595404,-6.69397480370241,0.4004882156816244,M
3.239079900554741,7.435342106679833,6.6038910415710514,-17.53083043938232,13.242539776709597,6.514078368120407,-5.5459224880744,3.364073441522765,M
3.416680757721449,7.8591116090275985,7.053136667188736,-15.074192725480222,13.771561863830694,7.786201553950247,-3.7812453044621734,6.213957701682212,M
2.6645853682877,8.36088258238289,6.883123164404843,-6.656358667827121,13.673286425779803,9.463951162483164,1.1963194615381882,10.837124952004315,M
2.244177569759443,8.591814176398415,6.66463763509838,-1.388839604632647,13.300871980419084,9.831271608947237,3.5749010077418504,12.132010931465231,M
2.000718376696484,8.75182177896729,6.441937505115888,3.6546381632991563,12.635460564955595,9.877369808681419,5.346727753392305,12.597032871839136,M
2.000718376696484,8.751821778967289,6.441937505115888,3.6546381632991554,12.635460564955595,9.877369808681419,5.346727753392306,12.597032871839135,M
1.8941308221301498,8.720251831884429,6.114325894174345,7.80604387287772,11.851934689412962,9.647434456958495,6.5223689809354966,12.39489932097492,M
1.788151624851741,8.419319860267882,5.5590087030041975,10.723058478273554,11.137286675631316,9.229572637565067,7.400730142551813,11.827109410646566,M
1.5613184431949978,7.875850575500425,4.741766787681589,12.422134120588156,10.371630013134679,8.710189945192377,8.2668177092194,11.127815070799329,M
1.1835558370819008,7.206970293203686,3.7511189962681555,13.33347620493302,9.35516783965727,8.148316372611635,9.167069183452977,10.325572777618351,M
0.7034826268289808,6.542070420441812,2.7295900552848904,14.246251207130271,8.173078069777143,7.574279692553846,9.925087965305988,9.290722966484836,M
0.16914379371591703,5.93995702762574,1.7622338798640935,15.796391181091872,7.013733958089416,6.975491404620611,10.329281976611517,7.9167066779947985,M
-0.4337117179234595,5.362131905969419,0.8226304161408671,17.799793479057065,5.784785594286328,6.289243696540717,10.324224394768944,6.268524692432431,M
-1.1686876940097288,4.719204824600582,-0.1799201764025506,19.264545796406555,4.274697554528014,5.453223979489797,10.066587586788403,4.570319920192743,M
-2.08421105023919,3.9554815646555945,-1.3008546230986906,19.21764707813851,2.604123362307164,4.479632726305223,9.802699859900326,3.0516871990599914,M
-3.1558742068347994,3.117363304762209,-2.4855845696646974,17.443101389730664,1.161187960780331,3.461040763675674,9.674916269737064,1.7963460662364557,M
-4.266021911687833,2.367215211929461,-3.555146331409566,14.407154865283966,0.1485231106608623,2.5056004224598025,9.657240430420503,0.7301763659697567,M
-5.223927526961426,1.9321235163737724,-4.250256954981989,10.69403734477809,-0.44631645210583437,1.6958719087235266,9.695146476094056,-0.2469397011568036,M
-5.826174622483485,2.004895836529618,-4.322535604264397,6.627120354253418,-0.4754678491337147,1.10779431557655,9.872972922347916,-1.1186426898198953,M
-5.936763785177716,2.643118494370783,-3.641329611210093,2.2241416757094665,0.35551663740185135,0.821187521378025,10.382452112550329,-1.7400292323727604,M
-5.535723984889818,3.7246909866697187,-2.2552112841236474,-2.6537425606021006,2.0322263060173293,0.8830737270183432,11.314754386182248,-1.9634390706573943,M
-4.703777005042859,4.991956173567678,-0.36551058754817856,-7.947582805830862,4.15343727856988,1.2827355288408313,12.524954088368228,-1.7699795232421873,M
-3.573342191877728,6.162466325392332,1.762940955629641,-13.013200497109647,6.405048479096633,1.9798984454768807,13.732003484938115,-1.2731907958754765,M
-2.2969723318817294,7.045059310946323,3.888263116213474,-16.7410882100059,8.776755344141247,2.9329599338026506,14.755872361320437,-0.5956062338837738,M
-1.038490286713567,7.60034362492554,5.834828303553111,-18.307128978552857,11.202815695541826,4.0808293638274336,15.673026217741313,0.2523750721906487,M
0.03853659347061296,7.914576419063553,7.491459504941576,-17.763106000318288,13.347950767351822,5.322714516220463,16.76109794462157,1.3659099559242946,M
0.7812165656993902,8.098859151175377,8.771953458656496,-15.727015162506593,14.927415264310223,6.541961733805742,18.259814780851244,2.812182786840716,M
1.0340063311608847,8.170998495180621,9.556724564229668,-12.581208535435996,15.912399325444156,7.6333327997122185,20.106874327344297,4.494310016617467,M
0.6227101749111228,8.000491728656018,9.666278318831688,-8.176103684746218,16.204422073592138,8.488105248788532,21.868822932668674,6.143182477348899,M
-0.6071481722628447,7.366874252856651,8.916077589748642,-2.2710287733722114,15.427579899858879,8.981152286915739,22.976673343120343,7.454746375628872,M
-2.6903935259034464,6.104940662619255,7.234097568415855,4.912973458070477,13.34917024931753,9.015268358318034,23.105713882873406,8.265397645061006,M
-5.456415110654592,4.2426418476521475,4.753560519768313,12.50130885438019,10.294877144958003,8.578640366066846,22.374829770255502,8.631546612885163,M
-8.539590695715509,2.0343880435390838,1.8067700202071215,19.118577196661526,6.875187817475066,7.739683872843864,21.20591160080844,8.762075064110013,M
-11.491561045728423,-0.14087713924419595,-1.1771809702786231,23.3677939403919,3.4921946700052366,6.599874977625248,20.004888733718055,8.86187794897445,M
-13.930871895366547,-1.9578091139475695,-3.811432816091531,24.59456003892626,0.3652897441908166,5.27700815352073,18.937447804098028,8.996854893010143,M
-15.652577893938233,-3.287757741270615,-5.862537643450997,23.386830344237847,-2.215187571534984,3.9103994172951673,17.913987068954693,9.066559961773102,M
-16.643703563680816,-4.215461282292482,-7.285533909679698,21.1475835170491,-4.053392259997969,2.625491563935923,16.728929748721384,8.900857619322426,M
-16.994299169108263,-4.919686251456281,-8.161647070424806,18.995628687520593,-5.329933486627514,1.4767807436853293,15.261889131643523,8.419031505767052,M
-16.761744083796234,-5.501233739781209,-8.571310791574742,17.057741137938763,-6.318808055044756,0.455121513945355,13.636052983561973,7.740669094693688,M
-15.896693907853372,-5.88230118392569,-8.492059115543894,14.70121920433652,-6.863636224081565,-0.43689992181564036,12.20410923272188,7.156005051852796,M
-14.302269294604248,-5.853884670158311,-7.806302470664877,11.223834167600597,-6.487051228115422,-1.1378983707298937,11.327550630201543,6.957511778565156,M
-11.983106038563085,-5.239880059678871,-6.42198706786711,6.4110147221712666,-5.012709711413292,-1.5583096583165184,11.121382119696598,7.2461729690696846,M
-9.157708107208348,-4.05814632585096,-4.41842514465341,0.8796428161910562,-2.76971222873824,-1.6346492453635784,11.398923538564405,7.860439662111746,M
-6.238125875431635,-2.5611013459091496,-2.1075569101681912,-3.901009301965165,-0.2205566240086636,-1.3603720199962404,11.853323649739616,8.491083754129333,M
-3.6842167949114155,-1.128956648331136,0.043380958053223395,-6.271622887500402,2.2501748932156125,-0.8101712724359944,12.29045765947779,8.902250995158917,M
-1.8213674655479657,-0.09347426617906365,1.5932908918985258,-5.518712774850305,4.188375254468902,-0.15388996054865606,12.72757125328263,9.09327280083205,M
-0.7291969485058274,0.3902657253259675,2.3081423718773193,-2.453649979875622,5.165235987695221,0.39333663892684345,13.321259778156971,9.278398208796414,M
-0.27004734965323646,0.3544141842248506,2.2287104012866488,1.2013084942318937,5.191606678208732,0.6793908445173951,14.196297286983835,9.702959884257114,M
-0.5277422716696353,-0.7446531542410334,0.6326948094472157,5.27999415590778,4.085070715802376,0.4579456382165098,16.34854504380145,11.353833868809442,M
-1.1657743848964777,-1.5897744469935113,-0.4791766486429229,5.3810283313467755,3.19755941165345,0.08097746006498241,17.096417874231214,12.17769600363398,M
-2.229641802033069,-2.5462351383811197,-1.7118240197917642,4.9478570442715615,1.9529996113450672,-0.4072397922546516,17.461131277716742,12.739151298486634,M
-2.229641802033069,-2.54623513838112,-1.711824019791764,4.9478570442715615,1.9529996113450672,-0.4072397922546516,17.461131277716742,12.739151298486634,M
-3.701072789277805,-3.5497769012029083,-3.062306328233219,4.561745276414831,0.5654480647580072,-0.9746680889986648,17.60106884155458,13.036470860970914,M
-5.410898464871368,-4.523377601027149,-4.480103750685828,4.2456534756839135,-0.7066137118099659,-1.5933322470956068,17.728752921824338,13.195483672179217,M
-7.107135872775264,-5.4070747348179715,-5.844770176654318,3.498613180641822,-1.8799130612937982,-2.23151929835175,17.92626333624068,13.345486563910146,M
-8.584079244468025,-6.187064987225262,-7.0099996823258,1.9755055414187244,-3.0231071588655025,-2.8266916702018783,18.12715280940244,13.529586238632515,M
-9.76688926423732,-6.886461628626199,-7.8685115478082945,0.05719158931612114,-3.959643677873686,-3.2811083651048336,18.220158758690307,13.70288173548029,M
-10.685034790214766,-7.5181957212291675,-8.38097587407168,-1.50324746819214,-4.482232177349466,-3.517718829346772,18.13282784479356,13.78720393311842,M
-11.358604644300106,-8.040202928479872,-8.550956124239889,-2.4999274391966195,-4.657017293056261,-3.536205280745782,17.850049569988126,13.720279220841135,M
-11.704644771612005,-8.356039669682783,-8.386120514886533,-3.6159063344073665,-4.611425967258176,-3.3848928581586115,17.40936464679657,13.472254990259803,M
-11.568364898746431,-8.368312694496606,-7.902362352502545,-5.765124798237858,-4.210086879458609,-3.079248337226069,16.889156476413383,13.048261629665864,M
-10.871666880332842,-8.048982895422988,-7.173977062243073,-9.146214689816242,-3.2994243458176897,-2.5772620394129664,16.379063289342668,12.497946616688369,M
-9.744328596103392,-7.473106770208423,-6.364801180089088,-12.84807160171591,-2.154822464484625,-1.839575029798624,15.951387701184922,11.919931269216535,M
-8.501033828783497,-6.784382897387983,-5.6778371308243365,-15.241136940967877,-1.313210851007378,-0.891590917176537,15.650637926347787,11.434201425663657,M
-7.466497969991754,-6.109850556651333,-5.242767282798675,-14.95445987184523,-0.9973433454614193,0.17396450693298063,15.475958942466132,11.12461883447351,M
-6.789953179335795,-5.483148486053816,-5.03463135771557,-11.927984912427192,-1.0132692753658652,1.2316367274813091,15.356044679530289,10.993468692493192,M
-6.394511939530426,-4.8362205175399975,-4.902916158551092,-7.661459116900465,-1.1498661497496236,2.1639267559073434,15.18720872281221,10.971180486697037,M
-6.091186786874333,-4.073640765762095,-4.702601758501329,-4.112890921281037,-1.329287747455376,2.905704341316271,14.958769332736116,10.980359906526513,M
-5.764297773635277,-3.1828355466686866,-4.43404096133696,-2.0454670723809394,-1.4120899364233765,3.4633269010883376,14.839419042190215,11.004862405752183,M
-5.48751072066042,-2.2994427118737852,-4.278885449361355,-0.48606293985716037,-1.2816575663379701,3.8643079322626903,15.086245305350383,11.10726720747747,M
-5.479011605370024,-1.6679086937027445,-4.484565057139036,2.0989880541849955,-1.1940001235770104,4.078125825051787,15.837332599674298,11.3787698962673,M
-5.928939491540478,-1.5107159641171377,-5.172100508976398,6.173758765728087,-1.6475332801933522,4.01839044991765,16.992594941811692,11.857760203159433,M
-6.847832086173517,-1.8988679757236941,-6.229717823553543,10.6563597239209,-2.7531282863972706,3.6424107187971964,18.273848027817444,12.473813996559937,M
-8.073807722038527,-2.7294196345263932,-7.40421297524135,13.813729359470319,-4.056028484492593,3.020047845275351,19.363180572767032,13.0527357015707,M
-9.426823537867445,-3.834262197442783,-8.5277324485368,14.550696670981528,-5.142625172993418,2.2765322460216733,20.003864439622262,13.379416758936012,M
-10.861409375765144,-5.13170176468004,-9.683393955449546,13.171164711685325,-6.134793862102918,1.4828846385840098,20.0536184775813,13.283925840175979,M
-12.487285560365532,-6.691960604537428,-11.1608552479189,11.213706138578376,-7.43370071916287,0.6213511667495639,19.506128384319496,12.704492844786676,M
-14.45817951908036,-8.657117395086868,-13.233124755624726,10.366006040385646,-9.28147073387752,-0.3620746215330291,18.45955600701938,11.695809440932265,M
-16.82538046966269,-11.074273059278767,-15.924800842771944,11.098152373444567,-11.749633990024671,-1.4920611293170214,17.04533708708879,10.387240313301955,M
-19.45457877629028,-13.77339299136574,-18.938317186864218,12.227023655869932,-14.803368434014951,-2.723516536872838,15.387464569146525,8.924282726545012,M
-22.056763919474587,-16.394925308235393,-21.791313258101802,12.004385914488505,-18.071042523266517,-3.9318316373671984,13.609080471386207,7.423118556060598,M
-24.31861167796748,-18.561617386495122,-24.076018325399495,9.728237834034491,-20.82711908974351,-4.963704896003585,11.818214669037419,5.94790658802348,M
-26.045563207407213,-20.070488014525722,-25.658976174722163,6.262195453203096,-22.580601297027677,-5.745250483220581,10.055930667179558,4.513422651038729,M
-27.209900575195036,-20.955028626379708,-26.672507341189192,3.095124001819874,-23.548512649656754,-6.344312878494353,8.297695739852823,3.114610234678917,M
-27.877732380616244,-21.373876187264614,-27.31516799995591,1.048621797272006,-24.256622284017077,-6.894533466411298,6.548523040546169,1.7664344655699993,M
-28.102367287412733,-21.434057279350064,-27.644724701028224,-0.25356998442660517,-24.824514183119295,-7.45106733200748,4.919518051229858,0.5208875001801858,M
-27.887713439180185,-21.1080480578455,-27.54564631588683,-1.9780079141341929,-24.95124797092422,-7.9381875783407425,3.57766915888838,-0.5513148748612807,M
-27.23596306927405,-20.306014601716605,-26.88205280916636,-5.109393939855222,-24.453921344966023,-8.229776797056012,2.629865994649584,-1.3894560034723662,M
-26.216268002428354,-19.022639046372174,-25.683889607357095,-9.444650268616247,-23.461146847431717,-8.255408178820193,2.0680273014165844,-1.9572987156100727,M
-24.99270878897727,-17.42496142425832,-24.204095771368728,-13.345926532231335,-22.176546141447606,-8.043794582463676,1.7858905083410377,-2.2514801386176564,M
-23.78589127363519,-15.807844783845805,-22.800441657133923,-14.821302352833504,-20.831039948469858,-7.712067826670401,1.6063002233211165,-2.317156820033963,M
-22.77459073995372,-14.44558953739342,-21.724463347873066,-13.258106164597326,-19.803488072353883,-7.4178618139387495,1.3342888170082232,-2.2502688090262923,M
-21.990087008065963,-13.440538519105377,-20.96747718319171,-10.141450176438344,-19.352305678839745,-7.266954102482981,0.8797110414450252,-2.1551345456967583,M
-20.49340503933946,-11.92617899762746,-19.4131864474944,-8.140426453994674,-18.60225122129799,-7.164598651985561,0.09938498444259028,-1.9488017313651202,M
-19.505334394019755,-11.030741176903321,-18.28025229435969,-10.312382371802098,-17.408380320012824,-6.960584469514875,0.3252135204873814,-1.678102943264238,M
-18.461440739973167,-10.050589435635796,-17.10585247830914,-12.47643241086128,-16.05585120849196,-6.6414884851075,1.0541771053646043,-1.2163778219432384,M
-18.461440739973163,-10.050589435635796,-17.10585247830914,-12.47643241086128,-16.05585120849196,-6.641488485107502,1.0541771053646043,-1.2163778219432386,M
-17.650273524589245,-9.252988418531768,-16.253260798100406,-12.543552770938145,-15.141977211834961,-6.348083019793444,1.997553057409831,-0.655971007820759,M
-17.35951148736187,-8.95386096693488,-15.992513737322522,-9.766941915401755,-14.8651757505474,-6.237950343107328,2.6963970624668163,-0.20454313792150502,M
-17.717329388505874,-9.306056933232721,-16.33085192606078,-5.430443742254232,-15.126086315536423,-6.405968557448277,2.7553203675272258,-0.06535655113804868,M
-18.62320147819894,-10.170445948844776,-17.013872937793483,-2.111171439463944,-15.74607998808745,-6.843927852310567,2.079866611376412,-0.29886036013997774,M
-19.80860599569815,-11.162239831673999,-17.68205153906702,-1.8341242564734515,-16.376644553448834,-7.426523629468667,0.9627874472208268,-0.7669278169136104,M
-20.997126809699715,-11.858146760953145,-18.078447722523897,-4.630466943553509,-16.555719821581576,-7.955885833251306,-0.09424541720701599,-1.2088433851966474,M
-22.05613987617449,-12.033088823411525,-18.171929826548386,-8.783970518474232,-16.17358776807588,-8.271507573874796,-0.7228784210479745,-1.402270288732416,M
-23.019182306889853,-11.754145170225815,-18.107287636795345,-12.361822111966774,-15.659839334828387,-8.332416825768455,-0.9061157396153984,-1.291277770629582,M
-23.955259903830104,-11.251370383454065,-18.013168451110722,-14.520606675133298,-15.42360179179478,-8.181322321035893,-0.8834835212632118,-0.9815174818339589,M
-24.794176518828863,-10.66188930870819,-17.813555966960443,-15.702203146151273,-15.281965210131531,-7.8380870638865945,-0.857193927369258,-0.6098571182431742,M
-25.257963819764996,-9.860954049626189,-17.197418101398476,-16.960861737962624,-14.683059339737307,-7.245209889576853,-0.7765093840108028,-0.2050929212944776,M
-24.965225897027672,-8.534085220483497,-15.786846780725819,-18.993658159418928,-13.296389588248658,-6.303057529173637,-0.3608464374543011,0.3368077996936146,M
-23.64870097125257,-6.44280477694308,-13.396532851759485,-21.381456569117606,-11.12733018622167,-4.9384873343170845,0.6893045893626669,1.1462942493783665,M
-21.34627249104937,-3.66642608941915,-10.206444312615755,-22.644250580078058,-8.295394359380028,-3.166102149811063,2.4567280336372375,2.2432577286932704,M
-18.431027725649532,-0.6179207748801103,-6.719650289804081,-21.3431391461597,-5.0891474363323,-1.1315412275458219,4.708845713054113,3.4879126812133308,M
-15.44061901025027,2.180312481836545,-3.516321956542498,-17.370533388345404,-2.096882935826569,0.9082619821297108,7.0126237669568265,4.652228401038102,M
-12.808572538797199,4.381993810557635,-0.9582488565047708,-12.11613377979638,0.16093479839010846,2.704752120887897,8.980023286213939,5.546822608902401,M
-10.6835085267365,5.951197332947633,0.9579083929516197,-7.3423356464804215,1.7536813088707877,4.159271992866688,10.441625598556552,6.1114216999948745,M
-8.955113459519382,7.074239454214874,2.5062187224366164,-3.998477267045837,3.187789497534171,5.346682399990032,11.425744138524873,6.423346728650185,M
-7.436538773175005,7.9590481455595095,3.9844984147791136,-2.02449178113507,4.7510041572287935,6.40188881649235,12.031908264277552,6.63975687026211,M
-6.041862152739743,8.694944720255512,5.504795726167205,-0.9062239569646635,6.3095086501926385,7.398608239790039,12.361371264707753,6.915508568763715,M
-4.835461987149396,9.256108687778482,6.953465474729709,-0.19754464789805087,7.6931935854880535,8.321678453324276,12.523459323744598,7.329628558464703,M
-3.949473500187909,9.595086998769597,8.110312953050563,0.2546136116613779,8.871081263946909,9.104320847773032,12.615577744414843,7.841519713015901,M
-3.4509018403766563,9.716221762543402,8.817761314599563,0.2924958017058124,9.699547425120368,9.672954879437018,12.65155707528169,8.297203819544283,M
-3.255035531403054,9.670673633428894,9.085472506200054,-0.27766497236671894,9.918326910666867,9.998827522253086,12.531075068022476,8.49575835596762,M
-3.14565896229568,9.501990393526222,9.072499941657496,-1.1949726587769542,9.560117120007064,10.143271277166415,12.10445311402491,8.2907414692654,M
-2.888953873298906,9.211213490092815,8.969637837542923,-1.6256874658901883,9.029978193119359,10.230606788949556,11.273828474610019,7.6658698382115364,M
-2.3532006925159634,8.779433454886687,8.871949987404632,-0.765404983747126,8.600175840381013,10.340816389735453,10.058504871938796,6.730063526467949,M
-1.5436419222413282,8.2210749940288,8.734162432058074,1.467417251684755,8.114746096178067,10.43282481548999,8.605923017061151,5.629700229718283,M
-0.546585835937534,7.606661159962878,8.42828578093617,4.479283519609398,7.356308021018712,10.388262029880106,7.134420346825204,4.4373687446156165,M
0.5455140876810024,7.026209455107413,7.844289153043197,7.620671061366013,6.391788188195604,10.116618428657077,5.802600712501471,3.102322248810362,M
1.6695937286411788,6.531148309488538,6.964428251126799,10.54802857299586,5.343534572304021,9.609765514911425,4.594409234617454,1.51482058065373,M
2.7903885292710076,6.117301573420102,5.881702365405949,13.119846995775413,4.131224501043659,8.932550314890028,3.3585067122831234,-0.3483562381624564,M
3.884090278326691,5.764248179184162,4.761134364675135,15.300176912007165,2.728616909934138,8.19882174464568,1.9965557587299834,-2.3124906171895767,M
4.914471572375443,5.485352238156193,3.756516195307211,17.19208380075532,1.4191867702312326,7.530731431036484,0.6109248050293913,-4.038753772912012,M
5.814548670799695,5.337323552940111,2.9254069920298797,18.843026221761427,0.46750311965963515,6.983859067086709,-0.5362388235950903,-5.199720566119796,M
6.499616158179694,5.38177763000923,2.2048698747831343,19.891867997577695,-0.277557434109696,6.5014520180151765,-1.187597429780077,-5.66557882357713,M
6.90837222487162,5.6291339276571986,1.4701791779156133,19.636999765523207,-1.1302726854101108,5.974390977585377,-1.2214422982244395,-5.558423869576325,M
7.029473560368389,6.0042686129599145,0.6291396583158636,17.61358644928385,-2.077315673678034,5.357963158395587,-0.6879966936217449,-5.144923950911815,M
6.890843055441695,6.364877583218247,-0.31348304434256147,14.03547888182951,-2.8679271625536,4.717806969739135,0.22663884879367896,-4.659572109372992,M
6.543036040837924,6.576627894018746,-1.2460382628377749,9.70324039235357,-3.4503462356234946,4.173852018020659,1.300089164722419,-4.182450904384008,M
6.066575692605603,6.601962086466385,-1.9859897649422809,5.671476881190431,-3.944872301421556,3.826854165652918,2.405726622024674,-3.6398603038982573,M
5.189059487064837,6.51262680547096,-2.252602702131399,1.9336780767190398,-4.180556654966692,3.828211290134388,4.876747823900147,-1.9547779509306067,M
4.945160862244107,6.64745868665708,-1.7391568865035232,2.215596796622781,-3.708943784568363,4.033076038877456,6.335982329500949,-0.8676169540022316,M
4.779032229311629,6.906984161586983,-0.9834420718209861,2.599195031475687,-3.147373060000784,4.2051369759285935,7.839774846847966,0.17843061830101728,M
4.779032229311629,6.906984161586985,-0.9834420718209861,2.599195031475686,-3.147373060000784,4.205136975928594,7.839774846847964,0.17843061830101736,M
4.532879538972081,7.162703550708582,-0.18876398031082955,2.225408948466222,-2.621659051279331,4.295049170282512,9.257078201325221,1.057245611982312,M
4.020158085329761,7.2826216016483,0.4984948924686329,1.3577713943032796,-2.013306965560198,4.366281103890505,10.519644615920031,1.7783544039795527,M
3.0975637079727543,7.2185724510164935,1.0217250899751076,1.1108040128777277,-1.3772022142832117,4.509174658953129,11.623899674232902,2.471683996704451,M
1.715327792144332,7.0139135570388,1.3809163640862252,2.433746498073036,-1.0567834897321504,4.736647492278171,12.58247016755006,3.275672049167639,M
-0.08081421321775228,6.73080169493313,1.5642590446192166,5.361961300238325,-1.2519387527991623,4.966864815740942,13.381100132460054,4.208604032113014,M
-2.1932632175315163,6.367677933603405,1.4997885586105544,9.024507732609374,-1.805326543930731,5.0776476046172165,13.960615727037549,5.119378030856023,M
-4.511890298768404,5.849379813195146,1.080179830305624,12.211530899614694,-2.563826890187776,4.963180605084969,14.246445269833396,5.760820732444632,M
-6.900545116467164,5.107178962959485,0.26233183644773017,14.141843053086316,-3.611140546476752,4.575289310714678,14.233819746393598,5.938804189337492,M
-9.153192283555454,4.179352373312071,-0.8348597782513318,14.979811304265676,-4.932523301373059,3.9505172401800337,14.051653461345799,5.630269784582883,M
-10.994978444283324,3.2375635584035676,-1.933046173262437,15.574297821414039,-6.160446838635531,3.1876609139209715,13.902699641628535,4.984513972864341,M
-12.159825475429189,2.507326395405218,-2.7171634643690368,16.486566936606934,-6.925734987239487,2.3710631778781033,13.914389402852795,4.211905954549609,M
-12.489140649416255,2.143380140029693,-2.9908546846603827,17.307838192423603,-7.233993866494221,1.5226134059640704,14.06579225219231,3.450578091695307,M
-11.975015656713676,2.157658460458387,-2.750138517315853,17.11325668744839,-7.250986096385452,0.6467412168356377,14.272256757486716,2.7149537060400144,M
-10.728562077890583,2.4494379509897226,-2.131875242694711,15.505493925356532,-6.9519246301240445,-0.19780919413276585,14.51537956679094,1.96105967662827,M
-8.911841826545722,2.901887232357414,-1.2868988509857204,12.92340980522032,-6.26124887575997,-0.9038409463318253,14.872036775967809,1.2074751341959247,M
-6.68313378026466,3.4607666807481414,-0.2737004380479807,9.90200188817715,-5.311606081369932,-1.3817901938605002,15.438089183019468,0.6025373321160001,M
-4.185607403380677,4.136375828280885,0.9507275289256348,6.365245401027183,-4.226235013889626,-1.585438825412583,16.237523486147513,0.36873574242181173,M
-1.5748816475610599,4.943097173429601,2.439678633313092,1.910178280211607,-2.8215836551060027,-1.4802386885315637,17.175612755536573,0.6578381816242725,M
0.959114873742004,5.845809814603258,4.148182633570906,-3.27652521643907,-0.9058835551071092,-1.0325927323744672,18.059662925340696,1.432742574463416,M
3.225049780770388,6.767785580969284,5.91241056744116,-7.960556074267698,1.2289663354564688,-0.24910681823420466,18.70690274739925,2.4772495318563434,M
5.105822139927108,7.644902918410968,7.539838915963448,-10.437381497056117,2.998337799100908,0.7952385729779974,19.087422560677147,3.5274330900231385,M
6.596391361373277,8.459331878188856,8.919301635870232,-9.774972990396494,4.176748779636858,1.977079382023699,19.35685124346558,4.414757286258402,M
7.743327705626832,9.209297324130524,10.040324419820049,-6.745271089461151,5.013008614654497,3.1568124477510873,19.705497920021667,5.109720948205796,M
8.529420349543116,9.844621928777968,10.908274550312488,-3.4805366026974753,5.7140099341631245,4.198151422893135,20.161190987459314,5.65171742824021,M
8.816972908428978,10.239714626096028,11.4465575692465,-1.786006950648055,6.168094833741397,4.9958689799717355,20.55185761088505,6.04742772441863,M
8.418503632882878,10.242949333583201,11.485646454000168,-1.4765653992219598,6.193495729120338,5.5032924602854365,20.654315825944455,6.231974172576231,M
7.251746699713162,9.770896656648883,10.860243795554915,-0.5314475657369311,5.696479191140821,5.713093291973083,20.372611652247475,6.120683113562127,M
5.4607111732009095,8.87515558468459,9.54696069850064,2.7842446932151397,4.537432631379053,5.607839696440841,19.813104472912688,5.702114468250009,M
3.398862647232073,7.72904943971307,7.735454859211886,7.882664931619603,2.63863039827206,5.168004232985015,19.241984435065056,5.091281515779345,M
1.4641691298492636,6.541402052226978,5.763581095419655,12.037322982226861,0.3623537557997615,4.452137443863895,18.951581453450686,4.490582100854121,M
-0.10333818660689253,5.4609226026713005,3.951894016071185,12.65653559155255,-1.58617032699158,3.6355524835387896,19.077122870028614,4.075459799216503,M
-1.2966875286095605,4.545244809222046,2.467859924805713,9.490428439990623,-2.843678459579634,2.925089578926169,19.48052320207399,3.885584018677414,M
-2.2158103009205776,3.8187043277282298,1.3331042666124346,4.852939621233974,-3.6914329958639436,2.431976260367251,19.831067901241973,3.8070239356904887,M
-2.8493778565333594,3.3663574339413658,0.5549422209094151,1.765925070387063,-4.4809857441035446,2.140938279641815,19.850739084847095,3.663680002858567,M
-2.9709548724764625,3.373869033332955,0.24693696456287234,1.5501668328339815,-5.046267668468538,1.9907308165371966,19.519196314921313,3.349677943862285,M
-2.253878137977523,4.061777090161529,0.6227949900460338,2.7978136778179055,-4.917275832536506,1.968213114198353,19.07753093301276,2.903196734535023,M
-0.5089862678123929,5.547642111300244,1.8716770230634387,2.655279782431656,-3.849260724238936,2.140790708812717,18.86301424293515,2.470958362105107,M
2.14876234561291,7.729407110557721,4.018560037009895,-0.6007044388551129,-1.8791370675320536,2.619038795763608,19.106481084909426,2.195779240471137,M
5.323085933768619,10.273994909099958,6.868066587406027,-6.005228172211444,0.8737035419743979,3.467117411857276,19.787679382011024,2.111463866557839,M
8.51848089574491,12.730933943316394,10.061024533326966,-10.763803987962326,4.114173046397263,4.611483426509289,20.61400789955355,2.1203879127075447,M
11.352746210473084,14.715192636557726,13.202857429242428,-12.552637279578489,7.267003119761819,5.841240186442312,21.175886485730693,2.0726059446209826,M
13.664594569227162,16.05540272343646,15.983161905402415,-11.076560856694698,9.844944483401095,6.9365741247241175,21.221371663935415,1.8938752124717868,M
16.7642300035661,17.158619402147522,19.79637308583705,-4.685227300689931,13.462747041870509,8.527499494788069,20.39000292060377,1.5748844192144198,M
17.528134474166492,17.194018603731344,20.641359973840174,-2.733571599537168,14.55804440986816,9.153430680582215,20.19994348637595,1.7724489246284265,M
17.66617111235476,16.871005906518413,20.688909403684164,-1.6694957666784447,14.711375177635054,9.675057220492173,20.341525522858298,2.2269188078142212,M
17.666171112354757,16.871005906518413,20.688909403684164,-1.6694957666784458,14.711375177635054,9.675057220492173,20.3415255228583,2.2269188078142217,M
17.17377577230696,16.071794020000304,19.953920238511536,-0.2550075170148375,13.805809476431644,10.007817427635628,20.598580235063558,2.731682301516881,M
16.187880957552707,14.784975240186801,18.57409963658375,2.5934654301599465,12.158516479838731,10.085454388945328,20.647781922665395,3.055221532711156,M
14.932002846668846,13.2130246109763,16.785804212197743,6.835669849955636,10.099313358896735,9.916147252728752,20.298272240732295,3.112306641907215,M
13.60205346667557,11.697543922174239,14.83319278324205,11.352437410594934,7.774887280703463,9.580370193234755,19.627665723601503,3.002992053536031,M
12.286427333408408,10.501019792192476,12.868458260465559,14.912675207803039,5.376046236181116,9.185323369438263,18.907330302755266,2.8892359260904783,M
10.967984602924826,9.612850814145814,10.912752093121618,17.008788451515365,3.150413423868989,8.790335097913667,18.362746404081847,2.8289115968394016,M
9.594058880836464,8.740798913412544,8.911799236325624,17.876003791986538,1.075288436050659,8.351874332584057,17.979841646471765,2.717059807273774,M
8.157733110055768,7.506081414328065,6.847200706521103,18.081701208985045,-1.1289084763952082,7.756348662455231,17.538523341414088,2.3702209485482806,M
6.721767870754931,5.698282423244416,4.80559088314339,18.233875241848175,-3.510178367071128,6.922081185290693,16.81143016386168,1.655309623187654,M
5.362986089933412,3.4042957679716315,2.936475891541691,18.68646434053328,-5.720143619221288,5.856025942481925,15.70455918676841,0.546230889053531,M
4.100931335831341,0.9360043320298155,1.3392893560580483,19.078773663523215,-7.485059470024059,4.611251807947603,14.24408392996215,-0.9090373546533822,M
2.902556628727202,-1.3623024512392796,-0.00456935983983513,18.25416986625184,-8.922056394678911,3.2332568901524867,12.520948447878288,-2.635619989390617,M
1.770182680656318,-3.2787075169830446,-1.1874548727903984,15.076206548786455,-10.197411617344542,1.7819273770723207,10.692183355611444,-4.531185097038616,M
0.817448648028958,-4.777292020090973,-2.265682330200473,9.555081697590492,-11.18847347563841,0.3766122160377936,8.980820587681418,-6.439292843341401,M
0.24694103729679878,-5.928743906149412,-3.1835008953820405,3.125788924302978,-11.739687158151828,-0.8316299065923319,7.598504096734689,-8.162623353630941,M
0.2471701038412836,-6.800866557706412,-3.786103729051951,-2.1947918827245574,-11.974425106534014,-1.7396978096457922,6.646446369733839,-9.537493982722044,M
0.8950923419642649,-7.385595214497577,-3.905207046108,-4.962401879124219,-12.045945949107367,-2.328739945329189,6.096944405290146,-10.511751036840561,M
2.123497347036837,-7.601218724319359,-3.4608669677757424,-4.983326189927423,-11.796790175112559,-2.63784406148073,5.862174100458935,-11.142977750912713,M
3.7507335490505596,-7.3583460658693784,-2.51983974200627,-3.309696785680637,-10.993493316702471,-2.7309760904065845,5.885616356705346,-11.500052386959693,M
5.53632689426729,-6.644015519665558,-1.2791268015408979,-1.5577817275288446,-9.747985427108485,-2.6758265980928164,6.203832980061749,-11.555733706246986,M
7.223402399544317,-5.575968300063079,0.0043104079238782235,-0.7558322122509822,-8.40783460128902,-2.5164503110572176,6.931116389258548,-11.191759109648268,M
8.552760452172148,-4.398455059558887,1.0840908928353432,-0.5392238676076377,-7.1862094087170165,-2.2683466369560885,8.133114873993206,-10.339710401984416,M
9.279252857886974,-3.413036218766731,1.768107809154515,0.40879838222964116,-6.223782449038357,-1.974604321071483,9.671491105185364,-9.131063016721091,M
9.23671244941266,-2.863064460632755,1.9541319633674448,2.956342651591838,-5.849431256597002,-1.7638539299727172,11.206753521664771,-7.894504451152322,M
8.434092620466902,-2.824679193040713,1.667247517655759,6.595122566367484,-6.343754683301716,-1.8063211184890864,12.417832082130243,-6.979122318861366,M
7.085368796078397,-3.1750654790797075,1.059389370106901,9.87593643629923,-7.466984343955827,-2.1889944043027496,13.226742928639023,-6.557618103628284,M
5.503417671790534,-3.671736042560508,0.3335618285668257,11.55311076770506,-8.612645652919754,-2.8507939641884503,13.778495887710822,-6.5809505666342485,M
3.923399547923001,-4.096166616979616,-0.36800780428363644,11.287025658775566,-9.468956952178845,-3.641962088990867,14.212449952662684,-6.897414923694873,M
2.407888787399236,-4.363008341311132,-1.0195898318373928,9.60222799579366,-10.203185630063942,-4.419100369116267,14.497248011989237,-7.39313715972326,M
0.9132890050707794,-4.52646791527268,-1.6676386074866287,7.474415168616727,-10.988375322892217,-5.0863887968769514,14.48911929714889,-8.019685624065811,M
-0.5545130701632282,-4.698357370308537,-2.335668258852139,5.791425808987201,-11.733033610269786,-5.602107239457398,14.10601278947031,-8.717659851363601,M
-1.8388886106082523,-4.949687514155629,-2.9612938239484725,4.845051367803567,-12.349762614277951,-5.985935798370545,13.431140344756258,-9.355092810109863,M
-2.6712886490428422,-5.2601967072871805,-3.4074665388150125,4.229051471257385,-12.889532374216694,-6.294550388505909,12.679461601918126,-9.76637158032836,M
-2.82177485101159,-5.533044768585627,-3.533693097176684,3.2838999576508576,-13.243529320973781,-6.55008755243072,12.070799439851271,-9.853676970789111,M
-2.2497253271122952,-5.648696517195724,-3.278410943765384,1.5931587406834569,-13.065572604410509,-6.6954240809713905,11.693007714010196,-9.63823390367764,M
-1.1384709198472645,-5.515964653203805,-2.694451416657622,-0.9304458954625385,-12.216028578578008,-6.63674952771895,11.460107244585114,-9.200998104357046,M
0.21908421296126987,-5.092017627849161,-1.9079685112087261,-4.110737491855578,-11.007455274585137,-6.318746917234308,11.221144140495628,-8.575182219260977,M
1.5984767900229166,-4.374076928068375,-1.0327247566381799,-7.351898420402369,-9.79856015075984,-5.749460988324974,10.921087935449393,-7.713907085766803,M
2.9516503222665693,-3.3868617181538014,-0.10956152553218886,-9.609844834188369,-8.6054795172397,-4.985241908736157,10.634202929331577,-6.5822928144096355,M
4.381854656384882,-2.1824092374170108,0.8899286577276129,-9.987373467545556,-7.326409523697345,-4.126030948884944,10.440250051123694,-5.284967949318326,M
6.03259641114804,-0.8451278690860518,2.016205288868434,-8.513232153507056,-6.05899025606449,-3.3023523061487374,10.313605048476749,-4.086393542370315,M
7.976034868491712,0.515188002296205,3.2905409193642563,-6.146879250325397,-4.900173356332633,-2.615771584563361,10.157400902367465,-3.27875104257867,M
12.340807350012303,2.88134581639133,6.026201271609454,-2.19989542594196,-2.2402988778566524,-1.665625624184091,9.544554161127241,-3.182284542389484,M
14.258737606798132,3.746153611900138,7.184649020060727,-0.5574249570637211,-0.8530902346022579,-1.3579301944444024,9.071258908704376,-3.6073677301338853,M
15.62724711209675,4.350438045485496,7.967803459450441,1.6678920062186695,0.027652808968239607,-1.225566859123645,8.458599836293894,-4.1045512353514635,M
15.62724711209675,4.350438045485496,7.967803459450441,1.6678920062186708,0.027652808968239607,-1.2255668591236448,8.458599836293896,-4.1045512353514635,M
16.30421667268352,4.661518674658855,8.26565409477423,4.829372696031795,0.2800723896642692,-1.3599214670321476,7.687866974822055,-4.6222464025132295,M
16.329368084046227,4.633972686848115,8.067270318338469,8.49237574576943,0.09695994430605374,-1.8163294729556712,6.7857607294555535,-5.190049035837907,M
15.88433503430104,4.231907949478254,7.455899600380002,11.409342882070872,-0.4308901402424895,-2.5840085722033965,5.844639404432297,-5.812569725769579,M
15.188465750035698,3.469776181317686,6.570961830413505,12.26582930088486,-1.340901332372713,-3.5752839912838583,5.014560343756732,-6.418541662288145,M
14.38521073984531,2.428731881788816,5.543234199200978,10.734277360280545,-2.4815364917460436,-4.640370182951528,4.429344131836755,-6.920625783856613,M
13.482250132641763,1.2216674128586191,4.4307892502723325,7.75613349865017,-3.5815127627907963,-5.638089706788158,4.075001159012517,-7.323184261660645,M
12.390247962822372,-0.06684805644688349,3.208570028513133,4.702023858317929,-4.663906534840554,-6.521845731510416,3.7291355985748793,-7.757585807724529,M
11.041295937661058,-1.4074758346306417,1.8369823187114895,2.3089356915893102,-6.016217399656877,-7.3397290190583835,3.091026092547798,-8.387387747846894,M
9.493245307002287,-2.7920895686848004,0.3584045731570263,0.36520663489241123,-7.672185148467196,-8.135118416090021,2.019105597075506,-9.254547746080675,M
7.927432610524877,-4.175447342894809,-1.0697743853936312,-1.8616118845544356,-9.264697977596153,-8.863755580152443,0.6461700126421457,-10.208839293246097,M
6.544713472371649,-5.458691883472457,-2.2461434740070287,-4.972072110094622,-10.492297661234426,-9.41869735602074,-0.7382516726641765,-11.000614683132993,M
5.455865236602761,-6.5421498453412,-3.0492267174039265,-8.8437613050041,-11.407975735324348,-9.717848171465187,-1.9180491671352897,-11.4729453016222,M
4.6491599682661535,-7.404529812755392,-3.519050820356786,-12.37685338323484,-12.13642820326977,-9.762163061248863,-2.9030964155719783,-11.694749888140215,M
4.035113499719266,-8.13202750399736,-3.8325381339568407,-14.033055691198618,-12.651664358353687,-9.64219754005353,-3.9164888780971183,-11.919014822409011,M
3.5194193227603465,-8.858686370472522,-4.182652754684374,-13.036804391724061,-13.003776582978963,-9.5085797055059,-5.236043778950945,-12.392991150717213,M
3.0657244285814484,-9.657644564898535,-4.6400870940433245,-10.131319674310662,-13.423258492464887,-9.499769478924067,-6.976184797635865,-13.168401155229741,M
2.727598688166196,-10.471892024540207,-5.097264361643171,-7.011833932797513,-13.946175648726959,-9.649386355761308,-8.959781680939313,-14.06019099917928,M
2.6330875672019265,-11.145563363518557,-5.339307918183123,-5.02489363181089,-14.203812494844673,-9.861663493660666,-10.807646369856261,-14.784080520791168,M
2.9245203892665694,-11.532815454330763,-5.1851192191760855,-4.471979978018881,-13.851115230850667,-10.001040472411827,-12.190099677476084,-15.162118751664334,M
3.688242727356633,-11.595229523590447,-4.585653075257166,-4.949612841245233,-12.980232486479062,-10.004284572354184,-13.014060431811092,-15.234807317549132,M
4.912033294135778,-11.410623566917334,-3.616301313834726,-6.043496058881729,-11.851270167456198,-9.893482583248979,-13.395538756360102,-15.197751320093953,M
6.479828253353711,-11.093401028315574,-2.4017367484552485,-7.725252813331326,-10.4526373371983,-9.701096102986668,-13.501805843414392,-15.222619370756547,M
8.196532745598079,-10.697979680648988,-1.0561031890396428,-10.344146097616544,-8.658377279989551,-9.414804592930395,-13.43407485475684,-15.309305193464045,M
9.83741173783353,-10.184453520132276,0.32122794083294276,-14.212495937436037,-6.645893194969733,-8.98626034072991,-13.203449194095208,-15.283189867288277,M
11.203618348072592,-9.472189165773464,1.6164297988279444,-18.88832755185325,-4.80623690975793,-8.362855160828719,-12.759918851127045,-14.93436848088775,M
12.147699778730933,-8.538907611126769,2.6814104116190838,-22.81592081060779,-3.353682199952374,-7.523655552770125,-12.061689332626235,-14.190227275426333,M
12.560110225130359,-7.487662887091385,3.35083305703778,-24.047355922432715,-2.3559622631196646,-6.532921829416942,-11.171179437919545,-13.19405109906911,M
12.36263498995557,-6.526218308555313,3.4963159110997517,-21.647246982681384,-2.0306836100005086,-5.56982965250624,-10.29239127884538,-12.237203678300514,M
11.551531639184558,-5.869000956896135,3.088013604958058,-16.40404013952815,-2.6045675864097775,-4.864113405564142,-9.685264739124982,-11.600309111625155,M
10.259493419144183,-5.628546512820091,2.2205903658475203,-10.1662363246384,-3.886883590704456,-4.56736656244549,-9.5300550788013,-11.415169783689674,M
8.76116545208248,-5.763057273948114,1.088840753394372,-4.631642575339134,-5.343043284739882,-4.681912939449609,-9.860258113961773,-11.625543133287355,M
7.394323527421241,-6.100499241920865,-0.05915254917097155,-0.7078469175447093,-6.613949957238989,-5.098493128923252,-10.569316996135887,-12.044961568584778,M
6.4422257685600925,-6.419354936035033,-0.9648124712483674,1.4395093328564479,-7.637711788857447,-5.668883101323389,-11.430248939277089,-12.456853243018221,M
6.040596232574813,-6.552028911793199,-1.410280473793336,2.130221367554365,-8.271097925136816,-6.247433637422791,-12.14524366993497,-12.700206614797068,M
6.146688181412124,-6.467500458795345,-1.2939864594264,1.8421432936823734,-8.218070202781883,-6.722611616354648,-12.472523056923308,-12.705714662741368,M
6.581462149093115,-6.283500956333304,-0.6944844279593082,0.7889133130879,-7.4634961013400645,-7.054421856442592,-12.354556927509593,-12.473532753158356,M
7.125272052460119,-6.18797727876522,0.14352376181996512,-1.2375960243606028,-6.4176709439487,-7.269237506354884,-11.90514529533461,-12.018355721055345,M
7.6092235589669865,-6.316086623755417,0.9155225504568243,-4.463888738218211,-5.457378862873765,-7.397007733541608,-11.262287998971768,-11.336151644116956,M
7.943863875510937,-6.672662297517489,1.3886613799394376,-8.582755408956578,-4.625911721669246,-7.429954191714311,-10.47808434419114,-10.432592757299366,M
8.084729453416864,-7.159196221948685,1.4693444360411867,-12.65379482249225,-3.9492227228864136,-7.361571014598579,-9.552871836822328,-9.393073743576446,M
7.98779246589785,-7.681953948488278,1.1718615506728238,-15.399608293559883,-3.7197358118932953,-7.247340424844691,-8.537343547754485,-8.423275514673966,M
7.596547572176897,-8.253923418561289,0.527976754261209,-15.53668089011228,-4.220523304787493,-7.205703527545208,-7.58191106282227,-7.8020322086687175,M
5.759045486033892,-10.080379409687762,-1.8978534957037314,-6.061604276575579,-7.164986317910592,-7.875173521892265,-6.711109444015858,-8.338753042306347,M
4.3572059665027645,-11.49342613225218,-3.696634613653539,0.8942573257752784,-9.39988809808428,-8.779396710303619,-7.0643485700536415,-9.383760506386356,M
2.8140317162177,-13.051376742883923,-5.690552554258456,5.68074375831255,-11.914019657197114,-10.0443193541607,-7.819135244495307,-10.597563532057643,M
2.8140317162177,-13.051376742883923,-5.690552554258455,5.68074375831255,-11.914019657197116,-10.0443193541607,-7.819135244495309,-10.597563532057642,M
1.3542202624650594,-14.428095660777842,-7.576190079364116,6.538523213638183,-14.136730545299793,-11.487338505413856,-8.687059215696054,-11.714137833797796,M
0.15958528897325888,-15.347299702828627,-9.097379123374244,4.10453908340569,-15.586751235705531,-12.870114938889932,-9.441769951855443,-12.621596085229378,M
-0.740036633229178,-15.739948982583394,-10.206152395880503,0.8440599771123057,-16.415630451908633,-14.041909582030565,-10.061619171637666,-13.36255807343045,M
-1.4837515523464149,-15.75243699919921,-11.076672367116355,-0.791252848553518,-17.17194140409871,-15.005904074306935,-10.655463705558812,-14.009613286833897,M
-2.2824226412446924,-15.605015301084602,-11.956472966431056,-0.0952568458698438,-18.112904372672325,-15.864157990340027,-11.266040393336711,-14.522163121284777,M
-3.2820367702595292,-15.425283328231965,-12.983140749637087,1.3552262175561125,-19.054392162431878,-16.720906217516237,-11.778701657002292,-14.713635501086353,M
-4.488585898340885,-15.195623581346108,-14.115947080281853,0.763905498372484,-19.789692142529397,-17.61523885927007,-12.017285073145406,-14.366347965440445,M
-5.799536735167708,-14.845629576405784,-15.22188678229692,-3.7218800546469284,-20.287960812155806,-18.488792508872592,-11.906789298615129,-13.403144212709597,M
-7.100811331751056,-14.388591329225696,-16.220193838819277,-11.331231908868958,-20.531023947768354,-19.200442542446787,-11.556367399316454,-11.973593646099943,M
-8.33148354970313,-13.961600310029104,-17.141603790960808,-19.102984122074098,-20.540245413035297,-19.611198855608905,-11.205986815634432,-10.3775588123757,M
-9.444568933259031,-13.720077269817793,-18.040017806702217,-24.254200147063365,-20.568079939697665,-19.683833060992622,-11.055887234322062,-8.874559717744805,M
-10.305927181340232,-13.682261950999953,-18.8452293805146,-26.30881709873957,-20.864393798073387,-19.48701246178872,-11.080002530411205,-7.52034110386371,M
-10.669892533630083,-13.67992916795004,-19.32599496553231,-27.073854291213102,-21.177784641099176,-19.0966379849852,-10.997278319025906,-6.1601112006465115,M
-10.315182391770843,-13.477905367513916,-19.239158328141304,-28.79814827482233,-20.87083166112741,-18.51959653042918,-10.479874116543352,-4.585935238857331,M
-9.244856338669702,-12.961121614384803,-18.545430680710375,-32.382766388415725,-19.678817752300244,-17.720322817868446,-9.42387239536755,-2.725752433410931,M
-7.75333511919717,-12.219940344564767,-17.48427445752076,-36.932462541483865,-18.045074649580656,-16.6808392026494,-8.010074461278517,-0.7055943653872012,M
-6.2733687769803055,-11.460746937086094,-16.42585628687889,-40.54164455708022,-16.572521211508104,-15.407360322808305,-6.513705133497948,1.2532247826874463,M
-5.120134026761944,-10.827235190394253,-15.625187938333994,-41.52737362003002,-15.459512584326955,-13.912628439919075,-5.091076235780385,2.9950488121539234,M
-4.336804888594987,-10.288034813656864,-15.082405455001691,-39.32063268042918,-14.625362841562625,-12.2385767827167,-3.7373556782385626,4.511260745480451,M
-3.7548870356743747,-9.681934006458377,-14.611097246240632,-34.48321768626345,-14.034913320505614,-10.494415203988144,-2.383268505761201,5.893187397655096,M
-3.2161070762828645,-8.8820378581828,-14.048822080126957,-27.988079535706174,-13.644508345418526,-8.847892675307275,-1.0041268786312143,7.2148354337673215,M
-2.781655895872044,-7.943756397028514,-13.439325203905677,-20.642264313284933,-13.322430678103123,-7.478380789712188,0.32207674287721594,8.448962540387644,M
-2.752002469303475,-7.106690874668298,-13.034846873876258,-13.271384388543286,-13.120048787367503,-6.532823858989834,1.4344285810649584,9.486080213437472,M
-3.458176267340984,-6.634658601735518,-13.104952242200024,-7.1068233786753625,-13.386135897234544,-6.074772753675434,2.2010843207489934,10.236068361751293,M
-4.98238619878863,-6.6204694970030555,-13.706746689557212,-3.4159483479970434,-14.297961769779437,-6.021619058551281,2.6411048995889375,10.71260992645814,M
-7.044116243237454,-6.921551887294777,-14.616896700750164,-2.5410796926360035,-15.465111014033493,-6.148105170412025,2.908087857010926,11.014473768118412,M
-9.148949305135583,-7.277270403906054,-15.48163048489659,-3.5449358052734112,-16.314921898862046,-6.217442466436067,3.1304684580335387,11.225051146606157,M
-10.869977453955574,-7.495547917594566,-16.042094169589404,-5.034795787778755,-16.71414333319932,-6.142377166653953,3.3020346728764425,11.339198688311976,M
-12.041741319971324,-7.5471043710100165,-16.243725262455474,-6.348698783302521,-16.887147103524583,-6.005723082813871,3.360403965258425,11.294643369951402,M
-12.754866118453947,-7.507862608887594,-16.17107671382621,-7.97477669407067,-16.87276249210953,-5.920471476732388,3.335871326807525,11.073036077899648,M
-13.201810721045584,-7.4265935706747,-15.901986718908697,-10.938928822921785,-16.447688584109535,-5.883973542193991,3.369449972977482,10.768274538444325,M
-13.499203303839973,-7.239591214924957,-15.408550311904488,-15.707226294277373,-15.510376991599045,-5.753135878863203,3.592643574848638,10.55791246511647,M
-13.59640622016264,-6.796187434680159,-14.56681920046176,-21.398647338441748,-14.15013766836844,-5.323246222540987,4.027074746302926,10.603678098119316,M
-13.323845156029813,-5.971058417962359,-13.259100960622437,-26.002625642909873,-12.361047208213426,-4.4384945533307185,4.5890091705136244,10.960266991688956,M
-12.551472583274006,-4.7823783376285585,-11.499181843217155,-27.67206349005047,-10.092131829038934,-3.091658638841813,5.14347436917844,11.551679523763966,M
-11.343372371604726,-3.4304332263946327,-9.490632144071034,-26.077333518310816,-7.63410414805737,-1.4634198183524811,5.550100010795113,12.21513125702247,M
-9.98612909479124,-2.2225876988613895,-7.566484528547787,-22.471515805982033,-5.577343594147493,0.15472126733110683,5.703446348098445,12.771376784902873,M
-8.86653474980086,-1.4328951233376617,-6.046664413964966,-18.381420728072108,-4.266510388315572,1.516931650850148,5.558653703490134,13.081972878111511,M
-8.289399196346485,-1.1938445076386806,-5.111356229788268,-14.363396371059457,-3.5944818062209665,2.523203721490994,5.113841859111284,13.078856901456579,M
-8.353515252962925,-1.4842360266655732,-4.764053050813672,-10.049284005890192,-3.404724874344288,3.1889999842779635,4.381807361520938,12.770525310424887,M
-8.946568121133385,-2.1933215210002706,-4.884006890301093,-5.077869971774751,-3.7373021783888687,3.5610650429806396,3.4156242406171544,12.231975655568714,M
-9.846612361172657,-3.1908963415388856,-5.318538826617765,0.3263070882804719,-4.5406159832052575,3.6783076231666967,2.354769502114025,11.5788186187286,M
-11.903897097296229,-5.549676740730649,-6.750635213429693,10.117121316841772,-6.437971479610701,3.2283457951804246,0.5979970152741292,10.336379875665106,M
-12.965136514134773,-6.626779263398579,-7.653352785822311,13.752336798774937,-7.435721061284599,2.6289078561558448,-0.04775882733048218,9.818290437167246,M
-14.012282107520742,-7.433867780748493,-8.576736159353072,16.461415611575593,-8.548964051443626,1.764861332905144,-0.6666060351915645,9.34143932434393,M
-14.012282107520743,-7.433867780748493,-8.576736159353072,16.461415611575593,-8.548964051443626,1.764861332905144,-0.666606035191564,9.34143932434393,M
-14.947586484057911,-7.883940601258527,-9.392963595274345,18.23422724406763,-9.456938999156304,0.7190453061055047,-1.3095203237306066,8.894591340801389,M
-15.655415476632868,-8.001614429552387,-10.007961773276879,18.784155492610992,-9.83835895819573,-0.3554969313622299,-1.9368196124372403,8.515470179008943,M
-16.0752165807046,-7.898995699609148,-10.42023728725474,17.596160861288322,-9.816152436410054,-1.3133738575851421,-2.467806818523352,8.282992829765158,M
-16.222807171926508,-7.6858159673809805,-10.705667569999187,14.501303072453785,-9.738229894522899,-2.0698305646413013,-2.829407125082533,8.278774846867826,M
-16.16237869369376,-7.393828110572386,-10.952620816887196,10.208153617654144,-9.714800259319265,-2.6069703929195187,-2.9976191687085283,8.533827689339349,M
-15.97859083900694,-6.990240943280947,-11.214667765039984,6.012635207592728,-9.691161743607628,-2.9703825814491855,-3.0462899817641818,8.980413408563999,M
-15.771955823362395,-6.469708864698366,-11.513497932980687,2.905194816881708,-9.798786233007693,-3.2522970432071716,-3.146179376186343,9.439501708897291,M
-15.665965097837681,-5.937812170610509,-11.874427474184406,1.120280118255692,-10.26148218338201,-3.5348073103831608,-3.471020254360629,9.668871768906731,M
-15.80577988657331,-5.601504525778976,-12.355353618707081,0.49233946980136756,-11.050984978512197,-3.839026571199099,-4.085266965963761,9.46379132144595,M
-16.323344864865838,-5.653983704640846,-13.030436250093254,0.8459742837947555,-11.983681341373073,-4.151971780928888,-4.910670323350003,8.764500906393787,M
-17.25488367353235,-6.12785786743924,-13.918108821074858,1.8432383648088133,-13.07250765279041,-4.493809004934903,-5.757170452759412,7.708103606264896,M
-18.456194915579694,-6.8326880160918675,-14.906045152814476,2.777066803551645,-14.405257963426902,-4.9146397755665,-6.3611156618671645,6.5771138099870186,M
-19.612893959841948,-7.4467015664218845,-15.761765094933997,2.897946881583922,-15.717860952486305,-5.416032901831668,-6.457614623311372,5.650253206236611,M
-20.385323542351664,-7.711285535166267,-16.252456247041767,1.938074754061315,-16.502527763757037,-5.916378515147243,-5.921963041035427,5.038313982467648,M
-20.590622188607075,-7.58060664699457,-16.280740575141234,0.18639572540833171,-16.593958528202634,-6.315507828806207,-4.882750907430827,4.624592838782041,M
-20.27025535870802,-7.210426150010417,-15.916149365180209,-1.8487474144853333,-16.286557628512178,-6.568899142241023,-3.66665379625438,4.165934125597742,M
-19.59603615939886,-6.80777680270789,-15.304231068206803,-3.7617070653128977,-15.800923143610168,-6.686393564425634,-2.6015149726684537,3.4837417527763024,M
-18.71045913905419,-6.470443427009054,-14.543882406575293,-5.470946649666954,-14.998515346170123,-6.689378127369158,-1.8514040328598589,2.60083780445697,M
-17.630487122961426,-6.129549678630163,-13.627252059452356,-7.356956913964401,-13.734459731066295,-6.586865335800472,-1.3843630558339217,1.728518575373122,M
-16.27172027464638,-5.614507145692118,-12.468765570421695,-9.99522166967807,-12.127736894212164,-6.36172244120124,-1.0318752396168722,1.1259769137175388,M
-14.565852364243653,-4.783673771022174,-10.99673861982657,-13.39920203451758,-10.317589963679312,-5.958110155837551,-0.597080028098276,0.9357488456775123,M
-12.589914833198748,-3.638900916885608,-9.254194091648907,-16.52434584697183,-8.303529638237906,-5.319773155022068,-0.012667905574433203,1.0956274507505022,M
-10.604146014587263,-2.350321666375008,-7.4350374113864985,-17.809775339901144,-6.2469286430635815,-4.484655024872071,0.5309670089067856,1.369408676054605,M
-8.942151018101537,-1.162112624134057,-5.80322481503338,-16.38234492004471,-4.598334064742741,-3.625640025572565,0.6487229628744157,1.474365486078474,M
-7.817581793873458,-0.23331468380186743,-4.533910929685825,-12.776534327629363,-3.616779526713645,-2.951541757213628,0.04167185473143169,1.2382865477891702,M
-7.200666670747435,0.46744277525295724,-3.6004702608359067,-8.635617626301201,-2.9872870082680745,-2.5538440864882084,-1.2187660690226734,0.7040697785325036,M
-6.866014205367452,1.1234992967046789,-2.80568182507475,-5.797226401817666,-2.202029916296474,-2.355547689730813,-2.653702243356757,0.12122578441461054,M
-6.566227856317734,1.9103241906878339,-1.9361739553093387,-5.301768848431648,-1.1389437678855103,-2.190658302380754,-3.627065939141668,-0.18406149962919674,M
-6.194219820297645,2.8342426721115155,-0.9245342559744703,-6.699535156521101,-0.017109508635064663,-1.9180020288605792,-3.719598770963997,-0.0038697715450212835,M
-5.826230743981848,3.6941022640743655,0.09604107542545384,-8.194557066974836,0.9866790902120777,-1.4985521889021878,-3.00745666198795,0.5986644174308091,M
-5.627862322697338,4.2053154877804975,0.8873450508019228,-7.91829312466678,1.7531059960456645,-1.0238029186361999,-2.059181162528244,1.2878088006797421,M
-5.690383517201624,4.208640564397376,1.2953589008700104,-5.4993701220919515,2.0670812227215327,-0.6676275279223278,-1.5864571513125114,1.638041426503058,M
-5.916201024335589,3.8099125653774903,1.3949757312265771,-2.4317679799171343,1.8706261518888556,-0.5509092590100316,-1.9455888691349759,1.401051572652731,M
-6.049878213289734,3.3296837477027763,1.4626418757498765,-0.8068939511102895,1.582495713406738,-0.6205656966611873,-2.896633157187825,0.6650187142072173,M
-5.8345106846869745,3.0873542205106332,1.7860398050296418,-1.6368811045036715,1.763581136750091,-0.6823419075206418,-3.8624330203769937,-0.22831738461648693,M
-5.155148020157028,3.1919481089359607,2.474699276910742,-4.226771444087405,2.471724649692564,-0.5705114614264684,-4.457243310091056,-0.9508586917568961,M
-4.047405651219196,3.5144267305817145,3.438235073285849,-6.860416789355864,3.295271446579458,-0.27658469348477144,-4.787886382347316,-1.4195593540696219,M
-2.591425045277127,3.8568852591449256,4.53401059198327,-8.087764566547635,4.017191588920597,0.08186012776811442,-5.2791147478562745,-1.8017319326277477,M
-0.8160323974985243,4.162447876801854,5.730263805685362,-7.787115839114719,4.885841771071965,0.3882815482460957,-6.232516075455903,-2.304218523378284,M
1.2987851932556798,4.585000349876964,7.137741935217823,-7.321544579599657,6.207925072804922,0.6260404678270103,-7.5137979186068495,-2.9401950511645447,M
3.740191105736483,5.367279534409466,8.895948188968738,-8.463928383466106,8.048564683325937,0.9012479437876418,-8.599162975752709,-3.4750854862623997,M
6.382365478600255,6.634299795236908,11.018703769103873,-11.752844859802405,10.393315526713609,1.3926466793218266,-8.935551533902117,-3.592965251819068,M
11.25263516515867,9.977788173639125,15.51632854298486,-18.198149343629957,16.126990452267158,3.412683018931138,-7.190339887648146,-2.235508533527966,M
13.00930906893009,11.450296455703176,17.321761288232842,-17.502139396819366,18.570458362616026,4.734788877697734,-6.022745633116643,-1.1815210480232288,M
14.191982597339182,12.520032785648285,18.60019520311516,-13.878712442945204,20.173055796140552,5.979049423507489,-5.21141365380752,-0.24989417705336522,M
14.191982597339182,12.520032785648286,18.60019520311516,-13.878712442945204,20.173055796140552,5.979049423507489,-5.211413653807521,-0.24989417705336522,M
14.793245561700479,13.146629582009663,19.289247223124207,-8.652568204148347,21.02071576858982,7.003324176523337,-4.7426590208132655,0.43245208366227494,M
14.728470232176866,13.303498501748305,19.29192420625045,-3.1504372602497837,21.15767316827668,7.746378451043147,-4.462465824248272,0.8375508801586804,M
13.826099219850803,12.910599720309904,18.457836534999995,2.030847678409196,20.26149731425806,8.156964698095017,-4.389879480476507,0.9294380648517178,M
11.985983646086869,11.90491459881351,16.71940433269068,7.006783152328692,18.10490484355513,8.179562099165446,-4.7351342205335785,0.6526264800967725,M
9.365762779654435,10.374200893831794,14.253909730772538,11.9816738325413,15.08681299731085,7.808326482203452,-5.626470038055267,0.03792685083137144,M
6.401413809334383,8.59561134234715,11.485805138047194,16.544547935064767,11.971294586283875,7.119539417645169,-6.864121933143319,-0.7083729039979142,M
3.6108256165912067,6.907788402803415,8.885870034679787,19.659568927859524,9.244989821401935,6.243504018070695,-7.95882979174433,-1.268978867190756,M
1.3168213211945108,5.508053269856051,6.711861530549899,20.569838362614895,6.969519724531743,5.31475343714353,-8.437014505924619,-1.4199698113281756,M
-0.5105356384326034,4.344247430097996,4.890360254993088,19.669013781560455,5.034906424753062,4.426053049859648,-8.180670783382604,-1.209211823404588,M
-2.180866383659086,3.198295433637783,3.131255662958433,18.188293093709664,3.2191657956602624,3.590210118648566,-7.524136653871703,-0.9364143583673814,M
-4.027612254764826,1.9026754773416674,1.1924248621723084,16.91142810477161,1.1927150924494871,2.7513959885559545,-6.98446603318339,-0.9186889722156988,M
-6.148383018519507,0.5171588853440714,-0.9052528329987866,15.362204589259807,-1.1024923136865383,1.876294196464365,-6.817350601841359,-1.2194397636422143,M
-8.334654318010255,-0.6852331372484886,-2.8859937757374174,12.352197094418523,-3.1363705315332915,1.0446211850139382,-6.802803245967077,-1.5764340591662076,M
-10.245569042534946,-1.4222710721170546,-4.450307144588502,7.272231502947906,-4.255520849016352,0.41676639992560915,-6.48269693247259,-1.6143782677253946,M
-11.68135146743378,-1.633080570330496,-5.5358847979668555,0.9460265560795691,-4.494381793495537,0.09356247074487752,-5.626670456496088,-1.1833382635440164,M
-12.731456632526937,-1.5463107123702928,-6.383180245625157,-4.546065437255965,-4.6086291694025965,0.019750676966556174,-4.486900916920568,-0.5423103464223812,M
-13.691275092320074,-1.5374527237574298,-7.354052677144478,-6.985431424218918,-5.292898753519588,0.02046697914325559,-3.6411392057304233,-0.2218264769681456,M
-14.835554693707866,-1.8984180114440004,-8.66250192340445,-5.52117027969461,-6.659783422807882,-0.09409349562178618,-3.598657580549498,-0.6555060637212902,M
-16.224211147292344,-2.6890654498666082,-10.227066335727473,-1.5185282182740554,-8.435281781721448,-0.446627779809149,-4.473511021512211,-1.8558919631743724,M
-17.656705796777523,-3.7477807273368504,-11.729309933340556,2.1904287871223906,-10.230514046663439,-1.045790272419622,-5.917588015560823,-3.3803962144115394,M
-18.77933366199246,-4.817340349287408,-12.804211086333288,3.2867948141901993,-11.534648459727352,-1.7729887662013184,-7.342233953346631,-4.61510082758844,M
-19.267138957715286,-5.686283398867032,-13.217649946641828,1.470660368177551,-11.881313370154796,-2.4377144056327076,-8.29226592841899,-5.163351698479351,M
-18.969910509701315,-6.26320606020792,-12.923021223195004,-1.7901486918452865,-11.270488825093707,-2.8870345827677646,-8.701827378667751,-5.049820302212984,M
-17.942807590149286,-6.559598461663228,-11.99237393482318,-4.7444272739473545,-10.156574154199124,-3.067852571582877,-8.826665242554737,-4.605434099639696,M
-16.36939681663646,-6.61927676203273,-10.514551194889128,-6.571573891159642,-8.840264413864999,-2.9844535395200267,-8.943590899498679,-4.157614109383363,M
-14.456901044691715,-6.457761948089447,-8.560001990661336,-7.554348635610748,-7.140975505190146,-2.6302038748519827,-9.123244141588604,-3.790148114199961,M
-12.372108699407429,-6.046481414183576,-6.219843156366437,-8.510952074709753,-4.834291804678038,-1.989349830693626,-9.250637575402672,-3.3472144240545454,M
-10.225338434910558,-5.333115630280695,-3.6419331762068636,-10.02710763702829,-2.095624242208482,-1.0824153998584483,-9.18393533106715,-2.640197729214455,M
-8.082556960074522,-4.278816379254775,-1.0095028361987552,-11.890197664793517,0.7310147213795716,0.02616199748968402,-8.869887932352828,-1.6686449006736215,M
-5.998418134688268,-2.9051559332644117,1.505435618957003,-13.123631704597605,3.5062919541480917,1.2550658218749113,-8.37180008273811,-0.6844266884877828,M
-4.059116481478236,-1.3364559930138609,3.753935903125357,-12.685451719987146,6.1256511801141,2.511280367599813,-7.842924755028274,-0.06201881756115881,M
-2.4012509248914187,0.19769431055014675,5.584685327720346,-10.179542193328448,8.218019920618719,3.680880148279396,-7.446569340520322,-0.07882245657085249,M
-1.1831997640307867,1.4228903412075966,6.831664218775254,-5.878435195584759,9.382595447176623,4.651446180488656,-7.254475996474104,-0.7672584923413863,M
-0.5276870394452207,2.1178553924342878,7.35122775796235,-0.2979721015083804,9.602527387081185,5.344327765666998,-7.229389387321615,-1.9368121545745058,M
-0.470827030999083,2.192595258602433,7.096214442600946,5.8731044014058025,9.126300458387636,5.702543955441209,-7.324905969742153,-3.3236093146797097,M
-0.9350427461098786,1.706842931469275,6.179933156775311,11.439526171444031,8.091094476500952,5.666401790653837,-7.566038138236884,-4.727444246630557,M
-1.7378544025150773,0.828195441723502,4.873392946936835,14.790859110819971,6.60111307890782,5.215493937120916,-7.986667165229707,-6.03433136034983,M
-2.655323438745687,-0.2439952655650651,3.50601229941485,14.799933212059617,5.035141059707605,4.448819905728609,-8.514543504995913,-7.152050395500728,M
-3.52572786020662,-1.3504295584867116,2.3141281125454407,11.782889859421552,3.8448869119656877,3.580572455899886,-8.985299283047317,-7.965133233664746,M
-4.318951443031652,-2.3994905946844267,1.3500640631613785,7.573512799858344,3.0523600702242732,2.82022584097749,-9.286664721408131,-8.369193623680806,M
-5.101376869194673,-3.3355859660648988,0.5345854782589436,4.575541251974436,2.318499847700536,2.25325753323582,-9.457915543828383,-8.343206918062315,M
-5.9195519057606765,-4.081459681777438,-0.1924699126243518,4.364961950871221,1.5353251004997803,1.8258829203351947,-9.644174904261321,-7.978875409441967,M
-7.288933551759101,-4.519164465620312,-1.0195393503020287,9.363450502196585,0.9496849139606173,0.8926637636221593,-10.505844018959923,-6.86114215630774,M
-7.488817156489081,-4.053701811883084,-0.8376923847287129,10.254373646451416,1.300996673964415,0.23021063151961013,-11.148633885744712,-6.340640161127817,M
-7.23765522501386,-3.2135903196801534,-0.25967099930126836,8.696696715747008,1.8962931538246832,-0.5055650345872336,-11.775562969056736,-5.91110257165637,M
-7.23765522501386,-3.2135903196801534,-0.25967099930126836,8.696696715747008,1.8962931538246832,-0.5055650345872336,-11.775562969056736,-5.91110257165637,M
-6.630616358582005,-2.1960395679436835,0.5062853865092829,6.104807809099811,2.6773165086195316,-1.1910281966716754,-12.320449680489341,-5.616908524156867,M
-5.872769154105095,-1.2088558951504882,1.1997718467904321,4.341298773236224,3.4663160284117964,-1.7601338104979096,-12.888460779397615,-5.546515071937728,M
-5.145451473560292,-0.37387035395434376,1.6657856737263927,3.813383820487361,3.9555347475843328,-2.247326071223868,-13.703109359597693,-5.800007782063327,M
-4.490344646591052,0.3102128541681287,1.9398183238100521,3.221240684992522,4.132284815787411,-2.7052929874259988,-14.910247319061975,-6.404491848233138,M
-3.8053693473752674,0.9253964551903338,2.195536595220393,1.0109041771269685,4.412449475577768,-3.103936232852951,-16.43610290970535,-7.258040038435638,M
-2.9476368650681475,1.551103112074711,2.601800523989892,-3.095013347345062,5.111020788688193,-3.336035646307681,-18.043548644573086,-8.169123256183987,M
-1.8459398846307344,2.2053619559692126,3.2092902939153527,-7.801719283655291,6.032903901489119,-3.305049769688322,-19.50530367215388,-8.968351993051785,M
-0.5404836023907262,2.846940199303834,3.9454128950284977,-11.15843321843984,6.820115532137672,-2.9839683163080153,-20.71735805409635,-9.595615192305312,M
0.8486159650738336,3.420064152032803,4.690736904216422,-11.87963476604058,7.442561695333616,-2.412849504107215,-21.68817113446324,-10.087754057237971,M
2.180418489466025,3.894873218263247,5.357263026839113,-10.160133794528015,8.066940256951913,-1.6806675495541286,-22.45478970400074,-10.48490086900621,M
3.351959789302163,4.272569943267306,5.919474277825441,-7.318906372119642,8.681478548915829,-0.9033511636584433,-22.98711081472406,-10.744967782344204,M
4.336484971567924,4.558593085964849,6.397158586235838,-4.468142384793336,9.18519427277059,-0.17979953146377778,-23.139735363005144,-10.745071987113153,M
5.172302766488098,4.730792055236117,6.809909100321265,-1.5106836484471362,9.662949663223083,0.4401834445396931,-22.719043880239898,-10.371965909873186,M
5.90231409063947,4.733382037914289,7.134661392014772,2.367086492993069,10.205647710876095,0.9278940052002584,-21.648811937767814,-9.626283790679317,M
6.518388836058345,4.509907365350655,7.303812799395878,7.246142263223428,10.579022399145746,1.2300831589821766,-20.08584204168928,-8.65229178717114,M
6.964057995769034,4.053789399749609,7.252790124404731,11.825911241273399,10.445376266040824,1.291171926149922,-18.361211139810145,-7.670427370841314,M
7.184988823761188,3.4305464017019958,6.97499400675494,14.353852808178,9.85730193364403,1.1236704582617176,-16.812521002492257,-6.874950511441554,M
7.175942170670671,2.745278226777734,6.53312647073332,14.040397259434451,9.185847688061713,0.8179643771492946,-15.670984045826009,-6.37791969539627,M
6.995635124928197,2.081862022580857,6.024968322709389,11.516309352078142,8.606211529463033,0.4686611201403882,-15.051237946639358,-6.217971813570147,M
6.750363771507223,1.469077437341663,5.5428236435428575,8.143085720638528,8.017378793419642,0.12108987810233676,-14.966961211108915,-6.386961023470436,M
6.549149998920891,0.9005713032414817,5.1536299317199035,4.987589144601145,7.450162008122945,-0.19736089346285865,-15.33721697115983,-6.833377285782722,M
6.447359636695967,0.3849318844657755,4.898186287054417,2.2038773913100336,7.14975768401339,-0.4270030138895405,-16.025205784199883,-7.4549374078593456,M
6.427166602174671,-0.019353283956410627,4.803124773196315,-0.8356740827587231,7.187962756411709,-0.4820751767519975,-16.902237630715085,-8.116463583506114,M
6.4441643967297875,-0.21476167815652195,4.896811817720086,-4.680044872465162,7.372403405326464,-0.29065458867343635,-17.863453549733077,-8.699371966176695,M
6.491368802329058,-0.12310094717183966,5.20366155939468,-8.84563372266173,7.648952091262378,0.17907028945665107,-18.789011000017236,-9.15073553769184,M
6.600672893496224,0.24108622690126708,5.701778030897186,-11.792491211163433,8.222906846371743,0.8953756968650985,-19.535080438303634,-9.492856742531355,M
6.779154500856613,0.7424496785167953,6.2841259900887545,-12.09335586213471,9.115133980885727,1.7379081845507316,-19.981794946191947,-9.776595790561782,M
6.964522661043935,1.1882646304429092,6.789888674566927,-9.7076275345868,9.946675289640158,2.5285871579546324,-20.056469093281336,-9.998985236162884,M
7.05948014477768,1.4572030856094484,7.106451083251531,-6.075067703129245,10.394365020459407,3.1389505658391537,-19.68816977341876,-10.043709535116571,M
7.005897616408403,1.594421526531951,7.250780635293024,-3.023600091627203,10.580696060333404,3.5753660424797182,-18.772280959832234,-9.708221363881524,M
6.8187771758819835,1.78508411310208,7.344002662871408,-1.5697952471315044,10.784617318862328,3.9422528408320887,-17.218906753177816,-8.82404748301008,M
6.554325851623321,2.2174210170483635,7.4983865542045836,-1.4424934511887701,11.032294259096286,4.328660717475707,-15.040960989653422,-7.390816196083902,M
6.254399346217701,2.940748744236565,7.721782880681654,-1.4056979737738284,11.223491831297052,4.741694491093404,-12.401144903973167,-5.614208011520939,M
5.923929759580578,3.8279278669213683,7.925613412197651,-0.1789237452642233,11.404143059891561,5.122448634701046,-9.601077615188931,-3.8040969546491588,M
5.564808920457686,4.669249835557091,8.030069278065481,2.4339384870467726,11.617168525145498,5.391252708828775,-7.0151917975421725,-2.1984390532107962,M
5.236049473577895,5.325000675460243,8.074580813361631,5.07727251504429,11.70862963777838,5.496656618081483,-4.953787731588074,-0.8407423333761074,M
5.068131802456466,5.818068461568261,8.224304045114144,5.777880437814078,11.616982113137635,5.471499802964897,-3.5134097809005667,0.39422076065618084,M
5.184532898986943,6.292032547584658,8.642233156729647,3.7058145720890154,11.669720246822223,5.445803070142308,-2.566896060612919,1.6406163866709644,M
5.586016702024399,6.8701377891075905,9.328853947729838,0.09288810125219751,12.213516422727272,5.559504268734882,-1.9497466632017346,2.8702345447087803,M
6.126603627345427,7.537870769363096,10.08930257156813,-2.6338405359351955,13.056746036704464,5.8381425629919566,-1.6692930029468638,3.8507184579555007,M
6.6373606998156784,8.150623899531745,10.681027802277008,-2.6713359109297334,13.653477619802667,6.170739230884702,-1.9103379071937527,4.276359600028587,M
7.6411075952992205,8.691969047824452,11.208574234724853,3.461980493988494,13.740383632267662,6.51784785890254,-4.325071082792837,3.044732545457142,M
8.479263605942762,8.642053091699172,11.474844446699265,5.650623288886178,13.788139216470501,6.518398167032229,-6.013024092211363,1.7943838116348765,M
9.641116801787629,8.511521093153728,11.900373931897592,5.283192787595286,13.962134842135066,6.5135772705455866,-7.366909777021564,0.5778518924636666,M
9.641116801787629,8.511521093153728,11.90037393189759,5.2831927875952855,13.962134842135066,6.5135772705455866,-7.366909777021564,0.5778518924636666,M
10.916806346250869,8.343639013671638,12.353571582500502,3.0180368971832054,14.23724976194895,6.5923338443936075,-8.005749567406294,-0.3943477976649669,M
11.949199459640393,8.085029171889301,12.56011204543497,0.93093975403164,14.579419931882864,6.782537961484451,-7.912898433747422,-1.1064163512944227,M
12.454379007799613,7.650636416202943,12.298226432701588,1.0193197545189305,14.712822702271563,7.015065621903814,-7.416479490868406,-1.6407520068729338,M
12.40767181058555,7.0272054645733775,11.567627690112712,3.9247038862139063,14.242580212190223,7.153798402481698,-6.905080725792937,-2.0306725625170876,M
12.05077515888185,6.324564935139859,10.606861838395858,8.788208352248976,13.183364175218392,7.083641537917207,-6.5163045867383005,-2.191760885880949,M
11.707508012815165,5.72646065695387,9.746336817292924,13.945144193665106,12.06114700387345,6.767239961380426,-6.090937961837754,-1.9796806774922502,M
11.555666702985363,5.378423277356297,9.211148951711404,17.698234230851412,11.330906916550305,6.223363062741306,-5.4118294319134534,-1.309927070258526,M
11.536616808579998,5.302517715554718,9.018137589517929,18.962546659061836,10.972047989218023,5.490869146349753,-4.458453345271839,-0.23454491030044106,M
11.4499883751138,5.399162705145261,9.017817627046702,17.836486353053253,10.78623141512582,4.635400151249458,-3.443684882670347,1.0755694825808697,M
11.120701281544388,5.51871955701087,9.015276464975647,15.687619117407689,10.73812170426572,3.750742649887455,-2.6555161071460303,2.4124342904690774,M
10.499520985312495,5.538569625723736,8.875453612357918,14.312733962197228,10.765842660732414,2.902304174782639,-2.2690498526546308,3.6090648990485286,M
9.655545255635587,5.397728834452453,8.568491844062114,14.638069196250498,10.584750825238183,2.0734210521362937,-2.2488563659897203,4.566345626553409,M
8.707545712192378,5.084350296285529,8.15565637509654,16.043503261957902,10.018207507098321,1.2014589588019757,-2.391953866633386,5.2257927704616645,M
7.752532014036047,4.59843124201983,7.726952490465893,16.815749267686744,9.311317620041235,0.2688765064165727,-2.5060695350602304,5.5221992149097705,M
6.824255900908194,3.918712939896473,7.315796864543763,15.301636046041299,8.792943122889751,-0.6601390119071893,-2.6030037812486877,5.363605766115498,M
5.89442323449966,3.000068538559005,6.842365255575698,11.058049285993693,8.385517345364239,-1.4832814864184052,-2.9124785154699206,4.66676124249591,M
4.910069953650547,1.8113978768692784,6.133807269324143,5.396977197132296,7.748894751443028,-2.118525543790543,-3.6646374523265246,3.429351648616957,M
3.841244463717134,0.393150565030576,5.021788752682416,0.7938535839985805,6.75269148572715,-2.5394194345536256,-4.840355687923488,1.7800804178259952,M
2.714786225816999,-1.1090523355539288,3.4658719962573366,-0.7885102973117476,5.491205238979709,-2.795459711798275,-6.1314461014393835,-0.045151834237586286,M
1.6267944335832454,-2.469154153343761,1.63065788677767,0.5526809603461043,3.994233290597795,-2.9956098731630445,-7.132587125144776,-1.797181603831636,M
0.7281936198485203,-3.462288411339686,-0.14211619002835646,2.7370684332150637,2.3194394863484025,-3.2275616835051992,-7.586448082636179,-3.3161441511143663,M
0.17200802994565464,-3.963053748457825,-1.4764864650879068,3.417519802026429,0.8521585214677245,-3.476156242869846,-7.512140837983802,-4.570043711120061,M
0.03529020052722559,-4.0007216979253855,-2.1500032246152303,1.6992664439033571,0.08908009622192896,-3.6450991243543562,-7.155355258923049,-5.600879351733722,M
0.2701022449211455,-3.7285367508545817,-2.200547174282158,-1.5595626131326674,0.08250524540862604,-3.664877215323089,-6.784911340836766,-6.418303238750825,M
0.7320893002474743,-3.319729012113181,-1.8690902497415844,-4.699549045883203,0.4331525202999901,-3.5522038154070517,-6.461123678852003,-6.926846258993083,M
1.2699693515895631,-2.8620161594474696,-1.4205138376158448,-6.421556077059327,0.8580997158298607,-3.3612182958442474,-5.982831045353412,-6.957067190319615,M
1.8074602964600348,-2.3288628084829126,-0.9777048883353141,-6.491408154738591,1.4268727835431918,-3.1170108764539277,-5.106942953375912,-6.390368483505894,M
2.3648219903787675,-1.6441030949920221,-0.48149679076700924,-5.791821794829364,2.208972567730792,-2.8170202823261996,-3.8475109539898966,-5.279059487580733,M
3.0169458683287522,-0.7807112874702505,0.21282394625350784,-5.655498709834966,3.0833121736092677,-2.464399848141297,-2.5379560624397604,-3.85395176880276,M
3.817031289736785,0.18693554429552753,1.181670612160686,-6.826918916295559,4.012401791090207,-2.0719244849170426,-1.5812579127355508,-2.4063214561929898,M
4.728423000165526,1.1131879210668294,2.3305484208032445,-8.914690333071514,5.122427415412927,-1.6542131580272712,-1.1411785182072676,-1.1442344299581617,M
5.6112810236103385,1.8650108602814128,3.4164735404623,-10.821946710744983,6.3174451650421535,-1.2391011056295353,-1.0541517403212,-0.13883563145264627,M
6.2830665801873575,2.3966017579396555,4.183177983053965,-11.606960675607443,7.148780644884283,-0.8650357402011692,-0.9908170407307407,0.6194378056158827,M
6.6119023246354045,2.7625859116745604,4.507615010660356,-10.949630241730954,7.312969964464044,-0.5427724090013294,-0.6964215128088607,1.133822827847632,M
6.569214062594592,3.0591676071843463,4.442900305372732,-9.133160860224177,7.015776840848742,-0.24289740768053,-0.141260387858481,1.3648326378536493,M
6.206701619268594,3.3291689440772947,4.130979636349904,-6.88423361924778,6.604935817897792,0.044602709458847214,0.493545346654895,1.25200640375529,M
5.590046451154264,3.493461742162334,3.6679292462258615,-5.052431229902169,6.090493816719622,0.251058379873304,0.9705430834195811,0.7485586481379967,M
4.7480173591653765,3.362705899915042,3.033503997477987,-4.034265304676055,5.282555306569805,0.2636902259647317,1.1671179485256349,-0.1596531807055266,M
3.6742241468299923,2.74073833707968,2.133113681687931,-3.4648612718720515,4.163101160347728,0.02081131612901501,1.1202170704044754,-1.437031654621568,M
2.3847567573318704,1.5720428348451267,0.9145709616790271,-2.767372397519634,2.8313396059335374,-0.4394209020479557,0.9361581962009551,-2.96414522248389,M
0.9981617952004918,0.04229394509628452,-0.5266950040093017,-2.0979821929170814,1.3089334121039955,-0.9999703135372424,0.704608932213871,-4.506246398971827,M
-0.23145493049578647,-1.4506369610052727,-1.9351061149426343,-2.525387576074341,-0.24669949890555057,-1.4982479615364772,0.5077089766864179,-5.737859014215805,M
-1.0496970836462534,-2.7302936145491365,-3.4986157966195686,-9.848999546791017,-1.3880390597132393,-1.6580206459649491,0.5688850890966917,-6.246534963127547,M
-0.41164276325869376,-2.2759222056858084,-3.4088161284122576,-15.26883879862263,-0.6120894106745182,-1.1907478136470457,0.811609313370852,-5.564879013493854,M
0.728861008244157,-1.372427845263184,-2.851109148446928,-19.087077014839878,0.39496195397993705,-0.4593652257469845,1.0208321540662957,-4.664634503544145,M
0.728861008244157,-1.372427845263184,-2.8511091484469286,-19.087077014839878,0.39496195397993705,-0.4593652257469847,1.0208321540662957,-4.664634503544145,M
2.1140212179925206,-0.33231671390969114,-1.977781530787287,-19.338043817664882,1.2215920992028404,0.4108937582999996,1.1291977129138218,-3.858931732869942,M
3.578295241741222,0.6972711353436273,-0.8681552824279712,-15.657310514531503,1.9379645153494267,1.3365791582643358,1.2837309399641483,-3.198005257789879,M
5.103070998781938,1.8062570564579676,0.48763649751134397,-9.818645731800387,2.759770581709656,2.277804569429277,1.8189235818526537,-2.4338373607638246,M
6.751316785723381,3.2160886961587765,2.1297294894815515,-4.754340352876477,3.8458488464111333,3.2284296733083755,3.091749567099062,-1.2107807705959523,M
8.545012970733357,5.079333594122476,4.049821633726983,-2.5326086525346274,5.42234010017338,4.220846728235851,5.270529057732107,0.6594184224598584,M
10.383425528414188,7.328005107557205,6.146524052874078,-3.005467664433385,7.651437335619194,5.299090874687722,8.186778571641184,3.045934875122368,M
12.074018341440256,9.67515672791819,8.245497487496745,-4.295302392176806,10.228176314453803,6.45407299004315,11.36899527520714,5.581204946122531,M
13.461085069442053,11.764976187759553,10.175073908508923,-4.464252386700204,12.470371776602315,7.602765678517017,14.289944557782855,7.906564194211251,M
14.542128550735617,13.363159968423286,11.842199297267886,-2.8249314477210197,14.00206237648157,8.652504170450722,16.657918822788826,9.88503496117057,M
15.458064253593903,14.45702371109194,13.248961216731933,-0.12011561270447801,15.080133565248385,9.569818573699562,18.49993772028683,11.618844903218376,M
16.359239372503787,15.209310762841735,14.447261287864062,2.180538578536895,16.111630384013534,10.372678508821554,19.984408350276162,13.278055358638323,M
17.270459604682692,15.815791768947303,15.485374891954809,2.938387548261839,17.159268791939436,11.083144744600814,21.185922323207443,14.899736946406708,M
18.071890963804414,16.367652992184116,16.386022500948606,2.198863358558214,18.088024320580562,11.713582959395648,21.99042490557761,16.31782718724085,M
18.596308554905626,16.792990547561963,17.14276753668945,1.214941848229796,18.84413698933688,12.273630013363515,22.1457478010155,17.254578363840626,M
18.749786425511427,16.89577977944672,17.71364389908762,1.517599950220252,19.30739129882376,12.75162845018984,21.380787698814107,17.48616775058199,M
18.567330701600437,16.469573138325302,18.029150285802956,3.845515932682651,19.163061999307317,13.098045678032253,19.572904964128202,16.975278271397354,M
18.178540851836846,15.435361292573011,18.039312215984808,7.865519072239465,18.282573526207667,13.261051799729998,16.920219210159377,15.909424900798502,M
17.721333128214564,13.932247224359244,17.77850077113804,12.626944993156203,17.066901638996022,13.237595634504794,13.971732394531937,14.634573259481916,M
17.27525507760142,12.299452114469847,17.392526598288647,17.017532541239838,16.10180246226331,13.06835141705766,11.417224435727892,13.516236543447002,M
16.86585888445328,10.945236111159256,17.095702674674516,19.988944061564474,15.60585018382345,12.796884372610561,9.759370274088463,12.795377487503249,M
16.518429813343044,10.170141826034445,17.074382195243977,20.91390989327804,15.48068196290333,12.467875841068501,9.105099635515082,12.510858711361573,M
16.28429788131029,10.04384328400462,17.386983218262483,20.067900572055457,15.698174245978251,12.153362471035704,9.190219226208333,12.522285797898052,M
16.200336724962476,10.403977158685644,17.923180055442568,18.664968425771658,16.25442173993049,11.927402803543384,9.582473090852458,12.61460034969598,M
16.230564629417678,10.972236820421754,18.465329936230166,18.213272779107452,16.864837209073393,11.79251932757138,9.951416251021136,12.628620417561775,M
16.261629791690734,11.510527377963587,18.825116364866297,19.67069115204541,17.13827620439186,11.655779251377684,10.271996965901806,12.545006879675842,M
16.156355539894715,11.91479684440895,18.951848813721078,22.913662430176124,17.062865648146193,11.392205250580059,10.806774025416953,12.462448921176119,M
15.808421823208253,12.192041193053162,18.918466392242983,26.650613897928007,16.96643165440934,10.920484089019753,11.830238066738593,12.475403257395147,M
15.157582285120236,12.358793388518325,18.801517605999337,28.892718418084364,16.982879824554015,10.230164884027129,13.313025393117304,12.54822915276577,M
14.177311168279214,12.361235365558569,18.57182072922192,28.05541799085619,16.904206370148003,9.383676400454338,14.873894027617752,12.510562407298396,M
12.867334901082838,12.090663075783711,18.096560050131433,24.08508037132769,16.58585838704722,8.510548312422387,16.054833269313,12.201664335546415,M
11.266314926133154,11.476748582636004,17.245696953319417,18.54035124439331,16.12418509354443,7.757756543735006,16.65116425454352,11.641943427376782,M
9.473656063484224,10.569526061361561,16.00681835626603,13.429949086502091,15.546213455214692,7.202282812646851,16.806103390135796,11.064520803859253,M
7.649419302423675,9.532300475873623,14.512037961069492,9.940809141103921,14.691271123238135,6.814003737150722,16.833890999075418,10.761485189276128,M
5.964619338993924,8.547446056544564,12.953823443266867,8.142792844270378,13.547415890186846,6.5139950735247965,16.953975824040818,10.872585418999556,M
4.519361538332737,7.713601498255744,11.45727705551823,7.477325566422668,12.37394106924933,6.25111351840511,17.143211639779544,11.297904715954065,M
3.2995224940482806,7.019252680829382,10.017565951242942,7.231950921786506,11.313524724660265,6.013618128234033,17.211162697350268,11.80434596804934,M
2.2260508495416738,6.4060405655291435,8.55635549966745,6.827546221254354,10.189766555026193,5.801373445613512,17.039286509158394,12.227060388772271,M
1.2561909243664295,5.8492138156681515,7.035811620929709,6.168421212555409,8.88459315117588,5.617134387211763,16.76060490719001,12.588150580043209,M
0.4313073542596628,5.368287925803246,5.510106264829058,5.8371212519014275,7.602251046574102,5.4591329362102945,16.669444720036932,13.02972507987945,M
-0.1787682254007942,4.957321931331217,4.063756498844738,6.697709268235275,6.494850056181567,5.2800640908206,16.919381965606625,13.623818863961585,M
-0.5728437405308204,4.512717004497032,2.7070354696604766,9.157577811964142,5.295216096839411,4.960288145567509,17.320467648753965,14.233797677446379,M
-0.8602845429200702,3.843472841688868,1.3359667949785607,12.817897381719206,3.632449611006293,4.359085275035935,17.45332940475307,14.555661799900145,M
-1.809437065487915,1.242290332024521,-2.0295161980383147,19.64233338584763,-0.7807675461660921,2.107736539444744,15.866511356953229,13.399072417128636,M
-2.712284628990487,-0.6210355021492506,-4.104915557980592,20.625207722555878,-3.1308410954891395,0.5498603439948566,14.370322962290441,11.990993819843805,M
-3.9039387212324987,-2.581052442164675,-6.283578491504113,19.25931958788572,-5.502597009247026,-1.174084570886212,12.86385645894477,10.371940897714728,M
-3.9039387212324987,-2.581052442164675,-6.283578491504112,19.25931958788572,-5.502597009247026,-1.1740845708862122,12.86385645894477,10.371940897714728,M
-5.296279925163608,-4.3992210151400695,-8.370812160803533,16.11934374634024,-7.689206904688476,-2.943603971083551,11.608185925716459,8.81001713662755,M
-6.799945352871994,-5.939476349336455,-10.230323665430594,12.412871116477016,-9.469999199375987,-4.633288285980256,10.605242310363925,7.441262080803371,M
-8.357142559924693,-7.188860124817419,-11.826683153315681,9.064796179279478,-10.958452132093289,-6.148123415280976,9.640780752001271,6.2620258412505,M
-9.91360017015646,-8.186720773279758,-13.173993572995451,6.117793885377322,-12.400720930283073,-7.420587919633019,8.516445627324217,5.2119326815784595,M
-11.369351431867356,-8.923160350347503,-14.244928141859592,2.9861695970641464,-13.652932533733033,-8.37094417621925,7.277772847102251,4.282539797078849,M
-12.572402804217813,-9.292860812612181,-14.92999022400555,-0.8905668674541503,-14.23175455255542,-8.904337911558358,6.223172682241412,3.5723940455186023,M
-13.367445846710627,-9.146398157019433,-15.084169003877921,-5.615110739594828,-13.908125028286275,-8.966114279787202,5.6985414321187875,3.2478480770858207,M
-13.657801843099875,-8.403327700357265,-14.62224548472248,-10.665331392628541,-12.913583524960135,-8.584763479927954,5.875059025688883,3.4355101901320517,M
-13.442544201130314,-7.141836292365221,-13.594905882136075,-14.919435591882669,-11.542546144931588,-7.858225656651274,6.661680155032516,4.1195164441209355,M
-12.817194329804005,-5.593122098808762,-12.19432697764499,-17.132005706087906,-9.925441805748273,-6.926049504470628,7.756356673401048,5.116099712449098,M
-11.933334697034976,-4.033429260922466,-10.674507914853022,-16.837413336515105,-8.25691052738584,-5.956578276623004,8.791630250820791,6.151360691075353,M
-10.925885087830853,-2.640162354390771,-9.225173920064021,-14.896708189948663,-6.829040069239004,-5.105597701389928,9.530579462035227,7.001457288858264,M
-9.854047202464459,-1.4094452046309964,-7.884747202868132,-12.994727102976123,-5.644847350281516,-4.432977016480183,10.011197381488435,7.609404913333568,M
-8.70764932723499,-0.19238721927314922,-6.559303875956355,-12.47110889028143,-4.326945482210972,-3.8622289988027405,10.518826493682436,8.10381844855611,M
-7.469304434010782,1.178170533697461,-5.126021771667827,-13.489594632389162,-2.622413377566112,-3.249673462926391,11.395782750254801,8.70614876035995,M
-6.163074668023038,2.7623989435512892,-3.530174871102754,-15.042451983530745,-0.7260489048904072,-2.499102649982632,12.837086310026447,9.580825631114463,M
-4.841055600246891,4.4756840737960495,-1.8067922605511957,-15.617204224885887,1.0877397802188393,-1.6135891774011093,14.792743854747812,10.71717727899112,M
-3.5295049048211657,6.158652592574478,-0.03307303133675177,-14.201235279344786,2.856440247559345,-0.6695142608526501,16.981165449608653,11.91795802147984,M
-2.190569877531151,7.697397809075065,1.7353495250661228,-11.133621396809199,4.708540976082042,0.23543170401272606,18.98956625046842,12.90822904585546,M
-0.7364665707880215,9.096158251254355,3.491689962536794,-8.011515986481587,6.529080591035803,1.0391135868625434,20.451783574391122,13.495235053545215,M
0.9024695829011964,10.437683268212439,5.2432773013063745,-6.361681668004605,8.14386334528128,1.7638074684547072,21.22246910034493,13.665101227963936,M
2.692123495639827,11.762456326350502,6.938311674733129,-6.142419962215857,9.606654405358068,2.4964273661573095,21.40192525801184,13.547603808875952,M
4.460081246905611,12.979190417173797,8.427789759589842,-5.646535021079416,10.971111591442268,3.2742552922335215,21.183075518806266,13.288904954894596,M
5.962809703377924,13.897760877601593,9.52327928868471,-3.0209179793997807,11.96086294165754,3.9846539649016854,20.686181008020725,12.946045263376849,M
7.017269831538073,14.358963336171348,10.115692246514698,2.0663888112413686,12.232128722983811,4.4145658664969085,19.941294419858487,12.486413285812981,M
7.584801124046786,14.338240773791274,10.239066494104211,8.091491918413864,11.852623668006729,4.417381587085219,18.97447769225598,11.873045935976895,M
7.732967651586941,13.92572744005798,10.00584455513958,12.768700627457534,11.166606247694146,4.0221226726642625,17.847499960443503,11.141662956945215,M
7.522005134732517,13.208069954514652,9.472582280781069,14.61312125707165,10.264149184701372,3.3892050948510417,16.616573138676255,10.393940662841331,M
6.931752667603625,12.173935537257357,8.57034367013794,13.910035928441852,8.944285506800698,2.686755866190216,15.29939457181274,9.718791431366933,M
5.895000706007863,10.742039850088789,7.173250702599013,12.399103106040783,7.163429000219861,1.9984423955476038,13.900595572657773,9.124802814120844,M
4.403005298996105,8.893306611427352,5.252243474630022,11.753289777181477,5.156813340631328,1.3017269870105435,12.460593740927212,8.55740247942838,M
2.5941505738352038,6.78610104391484,2.986407580021242,12.066339025960945,3.12026422676209,0.5190231530416242,11.094840564388196,7.991194561564518,M
0.7509937633077198,4.737127670551452,0.7308650255067279,11.884475439419393,1.138378322630831,-0.37271692575060983,10.004214183709003,7.504479308522714,M
-0.8082145165464908,3.062462128395528,-1.1552085918973642,9.863225875753752,-0.5495227159947333,-1.2598323421193167,9.403831697454645,7.243700058683769,M
-1.878132354082434,1.9022220273513888,-2.499508927361648,6.275571475818346,-1.6144903886441824,-1.9475283380870323,9.362498717838381,7.289462212602213,M
-2.4445792781906333,1.1805818062956326,-3.3690916614398803,2.72286571108762,-2.077007510900677,-2.323227163798557,9.699566381254316,7.5519784880930985,M
-2.6296361801627937,0.7391492513709774,-3.9320990463102232,0.45492546781961335,-2.3088997053462457,-2.4436145920139767,10.108390710304983,7.818384253164642,M
-2.5570518612531687,0.5204354936614397,-4.252243878159754,-0.8544278067227579,-2.4350034114850403,-2.435127675489487,10.430043193220042,7.925267905150497,M
-2.2594814589300913,0.6270595673010286,-4.211046580631472,-2.713275347720163,-2.072465327628987,-2.3262834622780058,10.780569606028305,7.8879533881575385,M
-1.6951848517398633,1.2009589425526344,-3.630974444503793,-6.2681181447392245,-0.876114784846013,-2.003932478081409,11.376366808748136,7.851838314808927,M
-0.8348758150958403,2.2397367341143175,-2.478954952216141,-10.969380692329135,0.9423208318190381,-1.324913897064197,12.248099385446185,7.915701106961412,M
0.26379102242358216,3.52179400106507,-0.9634545528892705,-14.613438638962089,2.849304782241638,-0.25902947965775186,13.140809409591398,8.009225365020875,M
2.478787170510676,5.510524116320708,1.7374865254353171,-11.880958404879959,5.5948040702025725,2.329434547446163,13.593107741537988,7.59246440143946,M
3.187035913391171,5.855949151574196,2.4483919559240706,-7.747456377997096,6.07399929313347,3.3383355080731905,12.93324829324047,7.000507247551887,M
3.4819377174963195,5.846118229706052,2.735956523038301,-5.815307111741694,5.966850667332161,4.023758575448243,11.973993385569456,6.379064271544771,M
3.4819377174963195,5.846118229706052,2.735956523038301,-5.815307111741696,5.966850667332161,4.023758575448243,11.973993385569454,6.379064271544772,M
3.412867138933632,5.662235433658681,2.7405762102272826,-7.4847308006774025,5.666214074981231,4.5691037074894965,11.031625563172216,5.955308611877728,M
3.118517017920106,5.43964888003511,2.567405502431988,-11.261624697638405,5.4664238864764005,5.235971270112707,10.234706768144097,5.847091936520143,M
2.754478219319561,5.221293379913011,2.2528094702542325,-14.165139386948365,5.162445650448992,6.139749646961643,9.497213148921865,6.051769495326035,M
2.440073503992651,4.996707543478282,1.8287742124190967,-14.120593584413601,4.4005866915294645,7.176622006419907,8.721104441386704,6.52964839870504,M
2.232721155475965,4.766120203514174,1.3879259711751515,-11.276524019483269,3.2921669144070775,8.152746569086734,7.9980620864586225,7.266896151644684,M
2.121074375146365,4.562889764847455,1.060525188945943,-7.46730122942152,2.3155836937552636,8.956590415476086,7.568368920015973,8.23774456472808,M
2.0485350653763614,4.423019669930893,0.9266165640405257,-4.52985616487573,1.6961392629935037,9.616431134412045,7.577752077311743,9.313900965884084,M
1.9731279269509563,4.344280960566638,0.9635140128206133,-2.8380383139566723,1.2624744635922693,10.235469905834242,7.896888275315281,10.24621145011941,M
1.923028203226539,4.279409977961501,1.085015305532032,-1.1936582713219217,0.8796996987873748,10.8841060895347,8.180263191247942,10.778114546241719,M
1.9943625710274024,4.1705220928288815,1.2315221333185338,1.8353872330356384,0.6331955770016682,11.52106932368098,8.103690583757018,10.809886135261976,M
2.2945044173527243,3.9982580751809302,1.4296201891293843,6.395517274646238,0.5638501907031067,12.001924219836665,7.598856632046544,10.466067141048397,M
2.885649839634959,3.8104594810149464,1.7751481080075677,11.186373820300942,0.6095674116309182,12.194218588119515,6.9269207496198675,9.994838515088237,M
3.7663373540102887,3.7086292749220617,2.355319007960012,14.747463602463318,0.8832685114054037,12.108704595910742,6.5208422993584065,9.575647664293303,M
4.886496579634848,3.7992453184600996,3.172882970081688,16.68377474607856,1.6344409288500608,11.901672425293253,6.677226292284894,9.195343575890817,M
6.184114142609044,4.145757624223583,4.142332034866561,17.582743517587744,2.8123426833507374,11.734434077481211,7.334145591156075,8.697020462166108,M
7.633967275052785,4.758727572097394,5.172590447279339,18.052095773654514,4.022601000307847,11.649775966925723,8.136775229731281,7.956938011676032,M
9.27445475484851,5.627116745497998,6.263901723401898,18.140601755451293,5.08646484228999,11.595372330328212,8.728196195551398,7.034939287386915,M
11.170539712583098,6.754161760489502,7.520111112532163,17.593779988499943,6.318101842824962,11.532827568729703,8.991094831975825,6.169798686981727,M
13.325084796100958,8.156307698369272,9.05365133312414,16.400830797390494,8.041529287205522,11.490552841604394,9.053381791754477,5.623435742263823,M
15.611380216968016,9.81726721780036,10.859863385230025,15.071639765205205,10.116327197208948,11.526261197244496,9.113499364662971,5.495156454684375,M
17.784046219320462,11.631665992486377,12.757281566623197,14.500729533133072,12.145770310272088,11.665019970229393,9.24830928140559,5.639698452853088,M
19.55657789997975,13.39182435945034,14.432771876504106,15.448500613168246,13.857286824811984,11.858791908606504,9.316870042587793,5.744102943719209,M
20.696310399061982,14.848487495202912,15.565906548110243,17.90725702425784,15.028058510962575,11.97972123351266,9.02162369321497,5.516260353003192,M
21.09639028054243,15.817711672203753,15.967766470094139,20.986550352608862,15.345442626862532,11.872365393807124,8.129109364054026,4.867012158546629,M
20.79576113426591,16.256791122428062,15.653049886089445,23.638921523425253,14.715667725110288,11.455744045459749,6.7080019284238235,3.96365718615613,M
19.932452114795517,16.248608363217777,14.794308785856368,25.51922414134084,13.533553235918742,10.780410865378254,5.154450009695315,3.1126996856317994,M
18.66020572311421,15.91313750721759,13.593126749660872,26.966830611523477,12.292867931247123,9.965093467079507,3.9400786060397848,2.5529408910071743,M
17.09697724442413,15.328796078873143,12.17387678167405,28.202361280312083,11.042565963413203,9.084197242228761,3.2982654062652985,2.308774311699437,M
15.341121866284322,14.527242424078784,10.577319150114828,28.829676374247168,9.532769713151804,8.139546939987094,3.1159348197468066,2.2031644409789743,M
13.513719818234335,13.547036738762221,8.83107872912351,28.190308649816643,7.756877077249806,7.12326107690086,3.076904792653692,2.004384385649975,M
11.761762083807394,12.47817270628553,7.013942211121851,25.965204042006768,5.990034075393456,6.061656670127384,2.90410657586833,1.5885235790107721,M
10.21217499819977,11.44822555871191,5.260984031408578,22.33780039534986,4.389188951757157,4.995912275958538,2.5425350848621817,1.0061301558498226,M
8.921560304109963,10.562552290384914,3.71912335309671,17.786723656054164,2.9481276490159654,3.9672593749334366,2.1918113826991936,0.4231173846427816,M
7.861520309768688,9.8530732143931,2.4914464866663217,12.83401392032232,1.811169125272622,3.0409026352782216,2.1482894715702625,-0.007064900141208136,M
6.9442873293045695,9.27781503827544,1.6011385897334691,7.806621742513653,1.213497685064871,2.30709125372201,2.531253145760469,-0.2486095465912972,M
6.072953212807672,8.764083808939121,0.9885415953595785,2.7279902308590147,1.0485120454092758,1.8246984735337826,3.114242884659137,-0.4047465246543222,M
5.1918827261436125,8.251018853857579,0.537606299858014,-2.3761935467994584,0.8595904382885766,1.57201398487909,3.4427423773476145,-0.6568271138132474,M
4.306856726628345,7.696434922867094,0.11536660867605952,-6.953113493940215,0.35887062869551467,1.4635996425568751,3.1544349521543835,-1.1695072782196816,M
3.460492719918919,7.055154583134687,-0.3898297809736224,-9.923286836071098,-0.36139631973965913,1.4008923968680715,2.224430424770358,-2.0147528720577954,M
2.686112185240096,6.265745380784008,-1.0358632900980793,-10.429317591551419,-1.2015393993787051,1.3066711238959887,0.960564808925753,-3.1411899580277023,M
1.9781178947246183,5.268528499285514,-1.8101555742792166,-8.509313661337007,-2.2667931101079484,1.1470077182450045,-0.19576750114150285,-4.392472040245084,M
1.2897342881423095,4.036978330911102,-2.6523557830550977,-4.924405754723554,-3.5684774640945656,0.9397377036799363,-0.9181798217473884,-5.572486694173252,M
-0.33618605965440695,0.9554659718349849,-4.450246755107133,4.238664619191432,-6.1509951939957395,0.3979844127103394,-1.2699057985886857,-7.300727317374763,M
-1.3934707286728887,-0.8133303524796979,-5.53751390017056,8.870710223200017,-7.654572517930051,-0.14000362382725987,-1.5773754650494858,-7.973962075143524,M
-2.5891991725701553,-2.656934649390764,-6.844123141829383,13.03464474010671,-9.590738025886377,-1.0292706554499627,-2.272191222983558,-8.70904687087137,M
-2.589199172570155,-2.656934649390764,-6.8441231418293835,13.03464474010671,-9.590738025886377,-1.0292706554499627,-2.272191222983559,-8.70904687087137,M
-3.830525591297799,-4.472241248139698,-8.316797771421017,16.38035575875607,-11.656063489108432,-2.2392385908427195,-3.1553130610050246,-9.539510326432964,M
-5.055699777110126,-6.136108265994107,-9.81228979695347,18.492998563337807,-13.389884631146595,-3.5922635829249634,-3.823662768869641,-10.343942355167716,M
-6.31191768673798,-7.575522457187583,-11.21692954306557,18.9409885825107,-14.714285943891676,-4.895330317434466,-3.9855255899729842,-10.935543558181989,M
-7.740794023086172,-8.827952423568405,-12.547616329203194,17.723796795449434,-15.864481104452363,-6.05423352627277,-3.6511454110811714,-11.207958789645705,M
-9.462246098059074,-10.017072111870238,-13.926935888466417,15.631204003148534,-16.983825702817775,-7.091280856257292,-3.089465607319473,-11.214366595125849,M
-11.434709041956188,-11.237559755571715,-15.435140963550428,13.74907192434892,-18.080194730987973,-8.096284323632284,-2.628248341864423,-11.112712011540772,M
-13.400118812326685,-12.437473029060442,-16.962504135278433,12.406216598316394,-19.176831559308305,-9.147610606840434,-2.424766349611329,-11.019597052936147,M
-14.978698345739224,-13.411421054689118,-18.208911714647655,10.80013179676711,-20.13734774311991,-10.224597284465826,-2.335478834988255,-10.892336115780164,M
-15.875362798118351,-13.93084951816715,-18.862080256096288,7.805969373397507,-20.482541758897657,-11.175695951622556,-1.9918389943181452,-10.538450545597785,M
-16.054540570139544,-13.90902835881084,-18.81655452728732,3.0503453988318845,-19.79849952048284,-11.80078407930289,-1.0501300990891802,-9.74557893983019,M
-15.737209456882008,-13.455914937373663,-18.23946294587399,-2.8043422211741413,-18.305370096906156,-11.985267636693663,0.5923294425229706,-8.426520781337976,M
-15.214818568271188,-12.774732233674857,-17.422955395862186,-8.58154586651234,-16.669099793071332,-11.75087918029368,2.7895116331906564,-6.674573574743219,M
-14.640814077308473,-11.997238496586258,-16.562030042444373,-13.32726769477919,-15.257985268694364,-11.193473206819716,5.287228053878298,-4.711480517552552,M
-13.976882603052161,-11.105523197688289,-15.656231631435205,-16.841159769866128,-13.923088131522755,-10.409311942742523,7.827819117164614,-2.7895028541017095,M
-13.117341691176694,-10.000360436503728,-14.60184971706297,-19.686027871343278,-12.49832974155144,-9.478078955115045,10.16497493040561,-1.1165047317456918,M
-12.053498209552663,-8.641925754864598,-13.363616322305385,-22.45287942539361,-11.120015191278005,-8.46227819066647,12.076293798318092,0.1698693737604934,M
-10.923265667252867,-7.134302271844054,-12.06056964449174,-24.785657740868814,-9.976112045349414,-7.390834723367443,13.406267737414979,0.9918133408691627,M
-9.911990926418445,-5.690391150465501,-10.898419066968708,-25.311097247890142,-9.114735874597189,-6.272959823441111,14.068666287625987,1.3089692283437195,M
-9.105244316758832,-4.526125125106445,-10.025835392540664,-22.831080310085206,-8.632652215587244,-5.161553795847315,13.987329223441275,1.100776878552371,M
-8.432654917451721,-3.783538102275044,-9.456128036803852,-17.57255147114476,-8.708266607240088,-4.189555727738339,13.063423062648146,0.36053919854750643,M
-7.757014535767986,-3.530376297342385,-9.124734600351381,-11.123764943488789,-9.275565541595814,-3.51944483577099,11.230386883076093,-0.8957636507996473,M
-7.024680736784728,-3.794252460170937,-9.011924415952567,-5.240483153506796,-9.978190356302434,-3.261224398846514,8.544050119728599,-2.6063671878187717,M
-6.328857711549126,-4.561452938934547,-9.189224890826306,-0.8566325292586512,-10.641735355499316,-3.4378628706845036,5.231439811666526,-4.638272070924555,M
-5.820534476134878,-5.730191762512228,-9.728288037537641,1.9429898426092045,-11.490249984614533,-3.986730501977776,1.67983607677128,-6.783187265095931,M
-5.5577333108372,-7.08223085507058,-10.564013215737827,3.3649700639745013,-12.660063454118617,-4.7554276837559595,-1.6379741154963257,-8.792241187439062,M
-5.448483401983657,-8.337585705371295,-11.464181296278323,3.42620272337466,-13.786906849141568,-5.522134872984935,-4.311062616647503,-10.440882471308676,M
-5.345355936510548,-9.27730210385971,-12.156216119440092,1.9020260400506668,-14.37962260392185,-6.082659662112303,-6.14229152551046,-11.59095302549113,M
-5.19544986210647,-9.840121878191486,-12.504221658713284,-1.2006412104116848,-14.396987327676538,-6.349428938293555,-7.167064546718686,-12.214360674225361,M
-5.098974230971981,-10.107460708783808,-12.57765872237192,-4.982025593400721,-14.162583148564934,-6.368872153820549,-7.508831034382034,-12.365204232866926,M
-5.220080193110677,-10.188124197234,-12.551283135547015,-7.68013807978438,-13.896570901279409,-6.259730450794857,-7.233127389868121,-12.121325296320524,M
-5.62433046444356,-10.105837146230682,-12.522797148894828,-7.88406908071578,-13.633602551937495,-6.147972904123161,-6.361441900871236,-11.538293341522174,M
-6.175159552056421,-9.787281106612914,-12.401108596430712,-5.972091358228078,-13.407803402365673,-6.120774624915336,-4.997491129231145,-10.648419580449673,M
-6.576455222040086,-9.153893746263112,-11.958974210795336,-4.129448541131935,-13.134788766196305,-6.173904409574233,-3.3931466617695607,-9.498951285923939,M
-6.539588144856071,-8.229781977569361,-11.010535856577363,-4.651181005239111,-12.425318129870323,-6.18592399902184,-1.8831744822838132,-8.188833887151787,M
-5.953143079353714,-7.168648667750874,-9.569017091285389,-8.109302644730963,-10.93041043662998,-5.9869440243867995,-0.7566109681733199,-6.86331331687353,M
-4.924659801539349,-6.174676026882003,-7.853442520472231,-13.04666862407807,-8.868345680610261,-5.4860554412443445,-0.14287017049633088,-5.661803008719979,M
-3.673283016063577,-5.383874559157852,-6.14701937401207,-17.264799077751466,-6.865397493868331,-4.726207406070693,0.03839280014210176,-4.658161566299383,M
-2.3858008407152083,-4.808228763871611,-4.643562171330197,-19.497354633448573,-5.274499994795631,-3.815682300890985,0.00470100584812011,-3.8458805121077395,M
-1.164935832843383,-4.389407941786495,-3.4144976303270873,-20.253770386146865,-3.9849029668259197,-2.829891219975978,-0.08330397017852344,-3.1859406575335636,M
-0.085054754857837,-4.106589667908732,-2.493773674432765,-21.262399715289426,-2.89495032185525,-1.7790470771762117,-0.2829309834765286,-2.6774725798581755,M
0.7351979123765263,-4.032601109633202,-1.9634535533490407,-23.79698053711561,-2.174018876584809,-0.6329019603729796,-0.8161718549608029,-2.3853557221846313,M
1.1264234042123142,-4.285471884421524,-1.9432812748449948,-27.1537424737722,-1.9728458939495894,0.6383033737173148,-1.8339065629646902,-2.3951499177433266,M
0.12653396297766834,-5.870207429456384,-3.5377672014850816,-26.167606364130528,-3.006841225519815,3.3471809760793447,-4.717460155519999,-3.329125269241738,M
-1.1639060735658056,-6.95703920047252,-4.836193764635757,-18.867957553051063,-4.363991144811932,4.4442847175301825,-5.983531861229055,-4.048778519853512,M
-2.6491665362383543,-8.017554384322244,-6.116407445164969,-8.786429876842014,-6.173891762244243,5.119078257862643,-6.944320266807511,-4.784339417802855,M
-2.6491665362383543,-8.017554384322242,-6.116407445164969,-8.786429876842014,-6.173891762244243,5.119078257862643,-6.944320266807509,-4.784339417802855,M
-4.025927978696279,-8.997832082899901,-7.207922741034052,1.172012247807573,-7.928819702513938,5.308260133507504,-7.765692383218807,-5.5057408263042875,M
-5.116976135328008,-9.969398560076339,-8.117018487786137,8.773737154014702,-9.266281905215612,5.05258796985804,-8.734442691948107,-6.238558042152197,M
-5.912534653486712,-11.034402227438385,-8.952765862872209,13.336904617554008,-10.315476180889847,4.435737211668394,-10.007208081713909,-6.993568971805776,M
-6.483318863533713,-12.194573552756918,-9.763419676189148,15.638750519624997,-11.314204953262598,3.5651237322975637,-11.433089978047054,-7.722980728605082,M
-6.8579711112347255,-13.293972481426163,-10.431039084822364,17.04949945767179,-12.149691863414388,2.5778712692674013,-12.638440376506484,-8.3454935720565,M
-6.972477591542689,-14.085991640707155,-10.722077500476564,18.320745114119042,-12.547253346058849,1.6059001643507276,-13.330713505598542,-8.807919658099394,M
-6.715063365075293,-14.372912194171136,-10.4491643205862,18.883565065660008,-12.463777280461173,0.723542677690289,-13.53341120839535,-9.115273385494659,M
-6.016789460543636,-14.115392361266085,-9.610643281784773,17.34765386811261,-11.976482866381593,-0.0449100281023306,-13.526342542585576,-9.300564469381582,M
-4.927020844381036,-13.443379794241338,-8.408745930911966,12.808513908072419,-10.998479806594231,-0.6664775622832257,-13.57907343775554,-9.372518967764282,M
-3.62890715077564,-12.574291985328347,-7.145084517411009,5.795751339335073,-9.485414640686091,-1.0744639359174475,-13.747628833110294,-9.299653509501123,M
-2.375617935551015,-11.700301859344025,-6.06948760221645,-1.8127579492276673,-7.7967081950924015,-1.2030918882757937,-13.882000543609234,-9.046369478812299,M
-1.380329569174879,-10.917820286690986,-5.281523364159696,-7.674415151761363,-6.467542420703744,-1.0284534017555576,-13.782757190367258,-8.624068467184017,M
-0.7392520365347437,-10.237215871598897,-4.745935329722147,-10.170246226856175,-5.6655184843699935,-0.5862109724537921,-13.369138041898708,-8.11001832763058,M
-0.4393256597845084,-9.647758687260966,-4.3944888903523545,-9.421657113486082,-5.188323296304761,0.021455199487528588,-12.74784732518964,-7.617067963011451,M
-0.4178374941070878,-9.169162915841932,-4.213437018772302,-7.387796138780374,-4.917676917234145,0.6505842249601692,-12.128794358047362,-7.234586299974569,M
-0.6057821164085297,-8.842939262154243,-4.23993864423255,-6.518740836906713,-4.905151378672665,1.2023292488707742,-11.649582249958023,-6.98220532763423,M
-0.939902806950084,-8.687086584564074,-4.495448636871721,-7.761163205239195,-5.05374029212051,1.7054817331392988,-11.285598876934433,-6.813804510556619,M
-1.3795967355375809,-8.67791668371826,-4.947346600488972,-9.73078152246637,-5.146267584059526,2.2745654821912904,-10.955804125926045,-6.674605172442439,M
-1.9363834450533848,-8.784132887664567,-5.538509466090931,-9.932917335702996,-5.2627523696054475,2.95554142653905,-10.699553786211277,-6.565886209327536,M
-2.6703436516344246,-9.008586039496814,-6.232946120628783,-6.912888091348288,-5.778010661467244,3.6297879161986115,-10.695540054569506,-6.555080931924811,M
-3.6234935773835133,-9.379290377875595,-7.010348537955937,-1.4912586012242062,-6.800770322062315,4.091621646481145,-11.084082529064784,-6.711933253131669,M
-4.731009076591314,-9.889126039078413,-7.809800170481215,3.7148821548222073,-7.931308605029345,4.214978372862529,-11.792214407301332,-7.019550802776709,M
-5.7881046806139285,-10.444286270121264,-8.485342353078426,5.996616565275208,-8.711078828927963,4.0501924804149265,-12.545360036230699,-7.3373206259614605,M
-6.517025008519738,-10.880536317389573,-8.834127827473079,4.423224340381713,-9.012866655712108,3.794419030518514,-13.043674275465474,-7.456460943400769,M
-6.711400967990544,-11.048371718125178,-8.701625200003383,0.6744021515745983,-8.86788746422258,3.6768373673186447,-13.152190202641297,-7.22121482131738,M
-6.373881512108281,-10.905658232386125,-8.097061576025862,-1.9868961921675883,-8.277908089682379,3.8156914310942867,-12.976628294152935,-6.636654356666843,M
-5.740121358201036,-10.540583711235985,-7.218244181058319,-1.0790462089203232,-7.432896573842678,4.1253156772797155,-12.77134552628542,-5.880825811432643,M
-5.1413397215168555,-10.09776068830258,-6.339359961326442,3.2853512350609764,-6.785767086825412,4.367540053803762,-12.72450400746061,-5.198028697618776,M
-4.789298283597256,-9.66283796489225,-5.637215943696497,8.663874325146073,-6.584875687450977,4.3394449156212485,-12.785991165643702,-4.743400028201655,M
-4.654743940926608,-9.20183463933186,-5.100889435814173,12.206697927820398,-6.535897424401766,4.032019067858805,-12.709985557450732,-4.4993412501243135,M
-4.539998028098436,-8.603943080886904,-4.5950851579585485,12.513037951236248,-6.208625306053411,3.6069818874535313,-12.284543018649748,-4.330720379535238,M
-4.272069841374688,-7.783493280349591,-3.9999695678022547,10.232200357551816,-5.587438643898692,3.2389307355406656,-11.515719644801765,-4.126187291148331,M
-3.843040541511973,-6.751705002321424,-3.2917464797568563,7.397134078789328,-4.9369824993610605,2.995299978274687,-10.594795952303011,-3.9008362643626335,M
-3.390235842229982,-5.610155140948093,-2.510683961578294,6.019040834904784,-4.324009639670487,2.833987434423471,-9.72831203354627,-3.778160747000212,M
-3.054005607258342,-4.490975774087693,-1.679082806211601,6.684549141993865,-3.6167154620674764,2.6632086590747988,-9.021292795127597,-3.8774442312074995,M
-2.842369620799345,-3.5001630082801447,-0.7637314361019382,8.144948622268739,-2.813465232468591,2.4053245682055757,-8.475993496143671,-4.203576339660925,M
-2.618357888916316,-2.696770348061994,0.2799876574992449,8.406987085668513,-2.00516271569818,2.0538039899995413,-8.034035152865409,-4.620021973196761,M
-2.229597173500604,-2.1018389285182315,1.4245115654653602,6.448161282700504,-1.103619561721331,1.6919313971361931,-7.608260639239786,-4.91479160437274,M
-1.6771351335506388,-1.7133476677445585,2.5302974524645387,2.955550401722123,0.011134535150985414,1.4324340570367913,-7.1113619177982255,-4.907638808985707,M
-1.1665537185230985,-1.512947795038848,3.404109449137767,-0.44460957479090907,1.1083748956598456,1.3238736185039257,-6.481738813889696,-4.533040571703238,M
-0.9747853353620165,-1.4696235222753835,3.920960858269806,-2.461784036109311,1.7537429807608294,1.329093045385644,-5.699547404859453,-3.8623634569453094,M
-1.2387695320604055,-1.5517836847824038,4.103145079614537,-2.8003582005783088,1.8666215349335311,1.3902863632496287,-4.816324456393459,-3.0663004418477806,M
-2.539891445427395,-2.049786268579582,3.9819697584281144,-1.3357238921069918,1.7557819134301504,1.6015170060441442,-3.4679723464908685,-1.8044449566152654,M
-3.061434380220194,-2.4666712185926807,3.850562870059003,-1.3801387738616668,1.6809322073416684,1.7386243423054897,-3.380280286956688,-1.4626062520807142,M
-3.3289655925131436,-2.962268679437847,3.6830780585180087,-2.1230124563261747,1.5017119632388105,1.896490196834015,-3.6297755761733654,-1.1924305866185543,M
-3.3289655925131427,-2.962268679437847,3.683078058518009,-2.123012456326175,1.5017119632388103,1.8964901968340153,-3.6297755761733654,-1.1924305866185543,M
-3.411170373300672,-3.4747253108829868,3.5084417088357553,-2.676993344766973,1.3932312523521442,2.0933250427561156,-3.93306912755887,-0.8570956736700637,M
-3.4049885480924744,-3.940095933584093,3.438210461830251,-2.242761021232764,1.4679675805399388,2.326372842463689,-4.081778055986995,-0.43130296900051796,M
