Fz,FC1,FC2,C3,Cz,C4,CPz,Pz,Inst
11.021565286875248,14.114514885036908,13.11789013737111,6.62423277884619,17.368737997174904,9.51712354241564,10.13679511487392,4.855398890630373,g
8.56039845268442,12.95146706630618,10.314972824659538,4.146360817766163,13.709846208006322,7.486420133048848,7.808172945774125,2.1960292117216555,g
6.517659863902551,11.961480634126815,7.762846732176112,2.0575706476535367,9.97893291185256,4.457887840115292,5.128743079500476,-0.578924912877896,g
5.277925830831054,11.358935421336282,5.9908588597123735,0.867393252923536,6.467185689802636,0.9813378040895401,2.5758938976298835,-2.9357945683923483,g
4.980016480910118,11.435488661470934,5.360759072565971,0.8691984692592817,3.774013476852135,-2.5079349472674237,0.5845858600036327,-4.354048013622327,g
5.293696420341016,12.000666367824783,5.670435858906009,1.8077630461704597,2.12671529706669,-6.07473948901597,-0.8603388447198494,-4.737201740587816,g
5.584860554183612,12.269959629393371,6.221461494888944,2.979361926294424,0.8940227533338554,-10.152708945124509,-2.2185827721248157,-4.471237463690487,g
5.404146407100088,11.674933673524311,6.39799306245798,3.7536070823669996,-0.5534292161341909,-14.92672084810207,-3.8693018985389775,-4.022692781652764,g
4.889754355802901,10.594968185631226,6.2245663595679,4.094520992465214,-1.7421477336199644,-19.809836034452868,-5.556221322389298,-3.429239621316145,g
4.705411388529715,9.986285411693963,6.359751231521493,4.607265641320159,-1.5202595547819346,-23.573075075025525,-6.400516145973431,-2.1847781527176373,g
5.5277524570225385,10.4475237424753,7.544620533865779,6.020488156866904,0.5671782033016367,-25.07565053543855,-5.519903211433439,0.32199682153181025,g
7.478639355176165,11.884723216224172,9.983509790756042,8.499849101941482,3.941164598510441,-24.00181225422491,-2.716084441020622,4.164382787916106,g
9.939133578958614,13.821145360837061,13.097694182171267,11.350957001196068,7.843019940066457,-21.045651100225474,1.3084030814351788,8.568540483927427,g
11.888855215325401,15.644845183209588,15.792580573238798,13.372679836797607,11.785437807970673,-17.447936871081883,5.3165954728371645,12.207150827709144,g
12.533801701112836,16.753039928828223,17.090059111926212,13.612156965946165,15.206206904799197,-14.236923328718499,8.214690730884763,13.90190815968665,g
11.777763762096502,16.963239190188595,16.728762903825878,11.959583282605848,17.491270328651222,-11.701149393717543,9.606737601039137,13.247709899958945,g
10.19913337713796,16.797094404796024,15.263760432249743,9.147863427819207,18.552061508736646,-9.461714989513514,9.850331383895156,10.734232522964055,g
8.561427192991731,16.965305143720055,13.546385693925373,6.184646146651744,18.76441995045571,-7.065055055573533,9.570631017785404,7.3080394811642915,g
7.244661184688622,17.518038321377333,12.032685702637645,3.6747882869723263,18.162936560870303,-4.579400196209351,9.05574403489365,3.735869440823488,g
6.037084942434295,17.80802865265236,10.532277278256574,1.5538433084231893,16.3188975602096,-2.6718294118133543,8.087307145894554,0.2701636123218812,g
4.427982328553712,17.292009661497552,8.557213616928903,-0.5909120585322338,13.237719163683181,-2.1217516031503196,6.330380571377522,-3.1550817945869025,g
2.15087068693444,16.040987118733707,5.893960336611192,-2.908987807972288,9.741144434104353,-3.2175940795920157,3.8602950654519432,-6.432189751407603,g
-0.4546736558077818,14.477276503998104,2.9267960875245227,-4.917552061460474,6.63018939680093,-5.5314951334091775,1.322896455338905,-8.974324822856907,g
-2.557396642170159,13.016958190195009,0.5011904040100674,-5.717282598294924,4.033126526046383,-8.223920751840776,-0.3997088804069794,-9.909046937603495,g
-3.3637834543950644,12.027118854138886,-0.5874371731928051,-4.6486397045157455,1.9194636889943688,-10.642755609239071,-0.7572275086278198,-8.648131238492143,g
-2.6584580140038314,11.673082428084408,-0.14303407413199637,-1.8438860797057237,0.6305900861697594,-12.772850139989854,0.07344439655074342,-5.368943151483296,g
-0.9044265490695063,11.600258234544706,1.300293760595761,1.8155426121074147,0.3690425371714762,-15.157371268833188,1.285089176035548,-0.980970052001464,g
3.2156905142781333,10.184318968422144,4.410220580377739,8.162556343769602,0.9442644398643824,-22.05717288366217,2.029300570294717,7.21121102414166,g
5.280844812524099,9.392621028425927,5.900939809988634,10.510439686270272,1.3617005102883362,-25.58552244104353,1.707482161090823,10.322032419196459,g
7.658341638952644,9.578723924020249,7.816324473828308,12.719928968402074,2.4086697962706625,-27.940310634610665,1.6272711071193906,12.941817942809802,g
7.658341638952645,9.578723924020249,7.816324473828308,12.719928968402076,2.4086697962706616,-27.940310634610665,1.6272711071193915,12.941817942809806,g
10.35462322891602,10.834669607954424,10.189350683486127,14.814757671882893,4.099266245139248,-28.731582324299417,1.9033866616522463,14.99252267311751,g
12.961236615823768,12.667407538003925,12.575874177007154,16.351675124583938,6.0473051595725,-28.272062786931496,2.1119818360803313,16.033935476631576,g
14.90520477701412,14.631090165867752,14.387564111381693,16.784789667292323,8.060504349972524,-27.15523509337487,1.7396474762334524,15.619917679997513,g
15.831097283927178,16.540519229101115,15.30174602319999,15.95826539386728,9.993110420201905,-25.686218651199777,0.6927532016468604,13.74925991269354,g
15.79435242996585,18.36134689266099,15.449573735851285,14.283766303796574,11.279095540436728,-23.613399283398785,-0.5447084056874882,10.993644554435107,g
15.145649975981303,20.315697708202528,15.306800230757162,12.462169719770054,11.44191106234955,-20.333390089293363,-1.160491706167723,8.197555625729953,g
14.236554246215366,22.915794207042723,15.357241027487841,10.998669786236878,11.05126180782025,-15.42862409912089,-0.48368310925142666,5.997461324940194,g
13.202992964233193,26.41862318182652,15.745905722085798,9.914832593042458,11.391681198994267,-9.161306986794614,1.6069629191703936,4.526632136169235,g
11.995577972248324,30.25349214558694,16.212319247074266,8.86740276681303,12.992740606561863,-2.528322391477599,4.613930543335201,3.5023380531175845,g
10.582736897567218,33.34048982859314,16.36605872529129,7.522868751879602,15.032961939798753,3.198593786925141,7.754274373315077,2.5783304581433235,g
9.086804794863045,34.98114051921356,16.004875603795863,5.842358664183054,16.268479383673508,7.088882266422752,10.408892027968566,1.645007563668215,g
7.714087090327828,35.1899647010142,15.16874547189283,4.072229445192638,15.977741012832269,8.871945071332062,12.316742665804648,0.8532443513135165,g
6.589515610947339,34.3103908152482,13.993775745043688,2.535218554440266,14.005392718342758,8.831053871933438,13.465707456302814,0.4246541373794363,g
5.697722343818844,32.75478322099325,12.629250319751057,1.4559253525441989,10.726638314081898,7.472350904768353,13.92972102534161,0.4819670933714774,g
4.970953900659405,31.079616689324393,11.258912254682828,0.9329558311363263,7.28946788823067,5.192941296687612,13.802818250708972,1.0275646888902692,g
4.380930982499057,29.76283816651369,10.053421538726427,0.9817240726947544,5.109899644994727,2.065650219590938,13.142747036327194,1.9920708547040527,g
3.910147042233331,28.683380219973866,9.025427458433525,1.5322212100082484,4.5086999303056166,-2.156704700119075,11.87287508496936,3.230148102268468,g
3.442150379099843,27.167877661219165,7.972127074944877,2.378155053533772,4.24121369996878,-7.758340424136972,9.779347378455128,4.470753284178551,g
2.7168733504294957,24.76070972122768,6.606377414197725,3.1817159695127506,2.8213452804714088,-14.651400339540015,6.696753526146706,5.333586495184825,g
1.4517765435593781,21.712179556137404,4.7652927010265484,3.617060842533479,-0.01649905258788422,-17.12186101922729,2.7435991350231843,5.476185575667533,g
-0.4161504134828785,18.630711968347043,2.5635041856438283,3.594639479595645,-3.4120237586240223,-19.165851977256317,-1.592499799110886,4.802786086616836,g
-2.5530311345264236,16.012095180209474,0.43766538903595187,3.3758787812074567,-6.311603139134164,-24.54171266762404,-5.566660792062801,3.575301386864903,g
-4.313919697434746,14.246376334519848,-0.9910744402753835,3.4172928629687163,-7.816490098101788,-27.539596241925466,-8.428548025639818,2.2933091880312966,g
-5.1021747302046325,13.62681542743382,-1.271721082111822,4.005052139775353,-7.263435729981252,-28.03622064085219,-9.744556798708826,1.3653812433912988,g
-4.7393715281161,13.981357477324218,-0.46937608690944926,4.976116738340001,-4.857148696727319,-26.45358395498669,-9.624296415002775,0.8000166447171528,g
-3.5092668155090023,14.596544842642297,0.8788425150785729,5.81303924720089,-1.9975929099623184,-23.367610503050372,-8.604249770729684,0.2094503211153885,g
-1.8145263862308163,14.936849099450964,2.2483926507696386,6.088633532143943,-0.15286388466663095,-19.03216272570618,-7.175208790812206,-0.8049041964731642,g
0.2255535680344992,15.317973967543148,3.5898609299550137,5.8841301109963755,0.6381844881403236,-13.230042532798517,-5.358406290920266,-2.1914716209177905,g
2.8189400527659396,16.53488911642591,5.283421333603942,5.767314161910225,1.6068807205298554,-5.654137322355581,-2.7811607599410353,-3.3603166386576233,g
6.106788356201353,18.89824912657285,7.6262303947766,6.28352272779783,3.682235825325178,-1.5639758954999265,0.7885139540724964,-3.6136875893340905,g
9.694058465873521,21.85124372302282,10.340814118776114,7.374486278745936,6.59347495136212,3.087611736497935,4.963655483078871,-2.7517197168294385,g
12.582402884154227,24.333235939973143,12.53124967646232,8.262088546169938,9.337483151120773,11.597056171146374,8.76360270116329,-1.3151339890988223,g
13.656922717690076,25.23359111025855,13.144646120752707,7.967506771663805,10.830786002584258,17.59296017545977,11.133273928396548,-0.22086329426453485,g
12.39296796770161,23.787873983592128,11.652771341302383,6.080297768964426,10.224768211029472,20.546430361176135,11.58059459666765,-0.0605382345357711,g
9.217983085137703,20.11489267160631,8.471839621883184,3.139670900428952,7.5067112041814825,20.991147700892604,10.479267981506409,-0.6278954312373992,g
5.203499718183035,15.378819631467874,4.722094647915521,0.2846421756317058,4.022190683992277,20.039494428127846,8.766932502800815,-1.0827929905446936,g
1.3096053945716928,10.91701620220768,1.4225069057957933,-1.5647113170748632,1.5846013036987348,18.523996453919338,7.190742467403903,-0.6563854932071644,g
-2.2006336733940928,7.017772922025946,-1.2139587322964056,-2.334985666813135,0.5938425835823186,16.416536813130993,5.6973616003635374,0.6630415004564536,g
-5.693729098899936,2.8311518483813627,-3.739355039822301,-2.734077895092169,-0.45305366592147467,13.020652531709692,3.5437386217035276,2.0457566633522477,g
-9.533757181449463,-2.4472563138610197,-6.748292146105326,-3.5692904312960834,-3.2193558508617337,7.776911042032268,0.06643888267076754,2.4283755189468783,g
-13.463764777265595,-8.583369438583087,-10.174983041297017,-5.026701260467647,-7.735152831931666,0.9813243225759507,-4.595312093034044,1.3108913192331557,g
-16.54451563507346,-14.475358206518894,-13.203928620453464,-6.493499708638616,-12.559476088475092,-6.167095866122416,-9.459630784157236,-0.9088581346177207,g
-16.415941414232712,-21.080987556973298,-14.2705851318138,-6.076767538976943,-17.484408904355405,-16.010664074569043,-15.426700899411657,-5.042885671833192,g
-13.086452130390228,-20.928182720949934,-11.852211852427931,-3.8258970579698386,-16.656255691495485,-17.531887127747577,-15.861091054097438,-5.9926845573576895,g
-8.764561498643808,-19.26605725702806,-8.387497791689501,-1.0545172415323845,-14.618422330279483,-17.305628079115298,-15.255664794543161,-6.524847465535745,g
-8.764561498643808,-19.26605725702806,-8.387497791689503,-1.0545172415323845,-14.618422330279483,-17.305628079115298,-15.25566479454316,-6.5248474655357445,g
-4.584573493774984,-17.33634515977942,-4.902972384225094,1.3897149596858172,-12.880018953101672,-16.063534858572584,-14.290418203854419,-7.1378329357287384,g
-1.2385763103656884,-15.82665025637697,-2.021335198402111,3.0389964828364278,-12.084135231129757,-14.17062343647683,-13.21482805835302,-7.980309910844957,g
1.2039359026731942,-14.428422272948003,0.24519790047591564,3.948490247718825,-11.23465095719936,-11.48688551712829,-11.766698694201299,-8.680643961988512,g
3.116537014188789,-12.490590574706175,2.259458491402075,4.529121164469546,-8.814503306467035,-7.648107199294851,-9.500749328731734,-8.546583922539984,g
4.940571335349553,-9.859042131391622,4.355403261932224,5.210153422793994,-4.489704130401765,-2.4797372486345,-6.2153206361738995,-6.989413817470944,g
6.820113293273421,-6.907337109647119,6.550653687854,6.105099454541269,0.7283910872832617,3.745422219443378,-2.158026661145275,-3.923610014908739,g
8.422731755328481,-4.127128610046402,8.44735794696012,6.849624334370351,5.605067385577231,10.285428055443901,2.0307994822738875,0.07395987768472487,g
9.058964528105035,-2.0851664285766303,9.325188493050726,6.7292038334878015,9.23412510491032,16.10483252488998,5.510625347411604,3.940689411543643,g
8.080622643326903,-1.5001669084098672,8.477229243205574,5.072297556357044,10.779603509050682,20.218205607993056,7.520480830495759,6.580050327836409,g
5.34392997194097,-2.7913111379231954,5.689957848426632,1.6991279041540814,9.721528348092715,22.10039608913609,7.720070111607077,7.3724621681749225,g
1.4167086641566586,-5.511216397440637,1.508593189772492,-2.86760107082078,6.619285490888069,21.915860678125867,6.396686200929636,6.447613611224531,g
-2.6543129030563053,-8.579840176143346,-2.9944271001315537,-4.592892593813497,2.9434008344612455,20.36729896413135,4.30256176348149,4.523928874129894,g
-5.8803093536925255,-11.117949617585818,-6.784348448952782,-8.446273903613518,-0.15406031420631355,18.259132416692733,2.187785546892718,2.4095028964048333,g
-7.805545176899645,-12.843060757807464,-9.317958760761197,-10.84177747282433,-2.501577502494288,16.08920529933595,0.3934948472754014,0.5184947013230152,g
-8.616135869038068,-13.827100336558436,-10.63031722773275,-11.809455636226014,-4.377818528345976,13.896418986746298,-1.2175971801806946,-1.2601648438508721,g
-8.851509414639091,-14.316362551240388,-11.120610764312637,-11.760321036748957,-6.028097862870983,11.383490918602513,-3.0291081633266,-3.2889385370134847,g
-8.940991169447774,-14.749654741918055,-11.20296194184862,-11.08051782071268,-7.8422864800840815,8.230376769710025,-5.324232495154076,-5.740908441676197,g
-8.871796068600323,-15.42428820218575,-10.981696912912362,-9.84266638128129,-10.179852156603193,4.454431197549229,-7.9916183571651445,-8.313099259737161,g
-8.197278683542592,-15.966043966132323,-10.160322112204621,-7.812137776701408,-12.54986867455967,0.5791263297511435,-10.45771082965804,-10.287730115587616,g
-6.3724481558085815,-15.521643598748739,-8.309563914257403,-4.711017281323576,-13.598898226176654,-2.5783217605582487,-11.968349387791282,-10.909733530946133,g
-3.1823567860275435,-13.705550134253624,-5.30194472537222,-0.5383184198948421,-12.503055518553497,-4.390164814499781,-12.074401879748361,-9.843704219251313,g
1.02542201710327,-11.110052749503115,-1.5317587792983534,1.2633124583637918,-9.999511928487259,-4.800081933902352,-10.934084463583458,-7.411287910571031,g
5.434407701981874,-8.766993436754408,2.2309985150923204,5.919488483936621,-7.604565343712639,-4.329243111038286,-9.192469246744508,-4.455108349040858,g
9.093020934403393,-7.409414260093527,5.16812294115718,9.575937497915191,-6.216710586256622,-3.7510317371157713,-7.588385741218988,-1.9248105898467032,g
11.302217018955083,-7.33919642691865,6.714466466950755,11.653947933380547,-5.888489991142249,-3.6580919340779516,-6.593152050781136,-0.4365210451141177,g
11.88461806541604,-8.519038783341085,6.777403333289415,12.069901907772111,-6.38698817587855,-4.131092377688916,-6.2305291855906315,-0.03711861726295442,g
11.208598735675148,-10.415521366212786,5.799067472791134,11.229183152029702,-7.246020019277486,-4.684946631454297,-6.104488946736561,-0.2839167460384907,g
9.93087696972616,-12.068237049934492,4.518785355273928,9.768956625314516,-7.6171248445085835,-4.587011803029231,-5.663031613132508,-0.599635928540096,g
8.590792642415789,-12.774537770732545,3.502867656947829,8.185902789130733,-6.897544076155232,-3.383944419139594,-4.606902527441954,-0.6987833072903697,g
7.325791868494244,-12.642731888431726,2.811330995668457,6.588812850657166,-5.468430707607544,-1.2311718663079136,-3.1339979263322015,-0.7896305293374745,g
5.912435487460748,-12.232309989214603,2.0940363451324684,4.750998649670333,-4.217597427280613,1.256766987224014,-1.7680899658410758,-1.3754428498619982,g
4.0917193930419655,-11.818371574648186,0.995014258066911,2.4250220108681253,-3.4162523006219927,3.4889201727360892,-0.9125162034137692,-2.7860906763337807,g
1.9223060803832674,-11.258373274462642,-0.49460204391496115,-0.31951944773139046,-2.6221397865778124,5.298089785479691,-0.5351762983591842,-4.8126038989499955,g
-0.1119982608543026,-10.339396076921194,-1.964510616607648,-3.005877056924386,-1.5240646603824044,6.969526468665468,-0.22614388307471742,-6.756016925526032,g
-1.3354321326485956,-8.882831884254351,-2.8064649457050987,-4.996052628138003,-0.1795186863874923,8.916396087305563,0.4670599063749008,-7.872894549481934,g
-1.2947276554363636,-6.694946094172886,-2.608414392324461,-5.884297636406584,1.5017909363070647,11.244016166474026,1.6791531743626351,-7.8741111947900055,g
-0.03960225032151179,-3.8840089768278494,-1.4664442896120455,-5.710163351037526,3.6767168232483236,13.525866934991532,3.076478342288541,-7.0767866085119575,g
1.9561687405043897,-1.1740899274662009,0.08375655343299711,-4.81356035968844,5.824025047985296,15.014842081493109,4.0585057545947185,-6.0789088645541955,g
4.155253610790991,0.5702711838453709,1.5228082924774966,-3.4826901790607026,6.879265813952817,15.183056663542496,4.222775263064503,-5.22634799444915,g
6.266712645783591,1.2264460268850186,2.7589144558746455,-1.7419080481504856,6.4827762261270605,14.135223483426529,3.7060447363332516,-4.344258933711134,g
8.235196345039473,1.4785904387075706,4.054228615695846,0.5139013150591453,5.505407007133538,12.490783247427208,3.0310718664119336,-2.99358975478765,g
9.976184268570222,1.9365329065899677,5.5637984776394145,3.185621307397213,4.968620264988408,10.837909635293865,2.5723818057069114,-1.0233975844072902,g
11.46415987689347,2.781048746444328,7.8906529119107045,7.740501889403196,4.8231233710309755,7.638935709661697,1.467149957086046,2.703042466132673,g
10.623300494331174,2.4360541889567258,7.8009744438774815,8.642296430154287,4.173519142864105,5.711474964646162,0.1566680706747207,3.2626904831242576,g
8.865784491613987,1.4636841837422077,6.790829066982124,8.640761393649933,2.8561457215527364,3.854515230436101,-1.4370148675525094,3.0356758297393247,g
8.865784491613988,1.4636841837422077,6.790829066982124,8.640761393649933,2.8561457215527364,3.854515230436101,-1.4370148675525096,3.0356758297393247,g
6.60721278436844,0.006261386165269611,5.20593302039602,8.133594115513654,0.9223518264430085,2.764162576990814,-2.693278450824864,2.6858499048050004,g
4.115425778270585,-1.6047488056758126,3.354533603778229,7.327856773840042,-1.1034539041077784,2.9948921036097635,-3.160086460441846,2.6948552509539114,g
1.3388081657574538,-3.035200505221633,1.242042443738021,6.0210596952636255,-2.267265327329775,4.495912947302568,-2.913748870356604,2.9561446448071056,g
-1.8557522357656304,-4.3636057253111655,-1.333639061580218,3.8760601756301583,-2.1304709152948065,6.621320825806746,-2.4715230010120592,2.9505286429359896,g
-5.235190120046099,-6.003536382971015,-4.343054139398627,0.9448773262571357,-1.3690847376345487,8.657244504186153,-2.2960943196057597,2.322964653893655,g
-8.028069997174617,-7.969797615197723,-7.182860625654046,-2.0986591098032568,-0.8696162981155939,10.396942451830189,-2.32884052477547,1.2978632505013707,g
-9.324551437391536,-9.542718656762457,-8.916120474612859,-4.323082074576821,-0.5479569849395582,12.180639904629174,-2.0555151586434754,0.5124649807976454,g
-8.78063107750177,-10.015041231576337,-8.995312530164018,-5.227274979705308,0.2859954835994548,14.337268598200248,-1.106802503741287,0.41243260629931233,g
-6.966208606362237,-9.546166977932582,-7.746036104667603,-5.113042621700297,1.6645679524992687,16.62507045930871,0.23683848522598144,0.8163992637284336,g
-4.949920908933559,-8.892608550911538,-6.056945686494682,-4.751517106556169,2.8590894830322418,18.297560714005883,1.2399455320607502,1.1186778849566061,g
-3.4401170092747626,-8.435047566292276,-4.567959182048613,-4.627742699272805,3.4888200436289063,18.74172211652681,1.4411915659612196,0.9408922389607906,g
-2.2754065920258375,-7.8604885287150195,-3.182781094403927,-4.494279236570774,3.9757221671481178,18.01344881833945,1.1250007992418012,0.5398214992297798,g
-0.7568735326599445,-6.755731671901733,-1.3617434312775738,-3.695178037928065,4.762353504967563,16.716899600523064,1.013361593160203,0.508041042868588,g
1.497936891768062,-5.189791316154598,1.142759152051281,-1.9537159358820797,5.6658555995385775,15.364137566195353,1.4912388213942014,1.061262276080664,g
4.019989675374697,-3.7442609992260025,3.8360294121394944,0.18382984492103968,6.128398969601833,13.867563365711607,2.1473644194474484,1.6796211876029425,g
5.817960680643036,-3.2250242425536184,5.757348691808706,1.7453769422049454,5.601772095080787,11.68090937801356,2.0913603565324874,1.5326322744409824,g
6.279344512786524,-4.186219644668716,6.27563256649772,2.2223319825263714,3.701968143786675,8.478626705858327,0.7843251627792546,0.310125444168428,g
5.77692908856133,-6.303337633168734,5.692297778919223,2.074212109790811,0.7102311876207736,4.719096512841933,-1.3638091561964827,-1.3646865817366216,g
5.369303765781804,-8.252075765293077,5.02426906987677,2.3161571124269935,-1.9199877537507646,1.4884901091818044,-3.2276307823332657,-2.3954621350641587,g
5.846341639098514,-8.714987143668433,5.080483650884708,3.5480046559368703,-2.3827411807531833,-0.30629723377857215,-3.903444428651312,-2.1692739569876296,g
7.015026832078424,-7.701206584248846,5.707323008604754,5.3434151593281225,-0.3777853824284171,-0.6423970743838667,-3.504139391353772,-1.1271054718263784,g
7.90459808088387,-6.55439835747004,5.985719545683936,6.593746166303461,2.3356715176679774,-0.27479513555974877,-3.011016532160651,-0.3840793954799179,g
7.686764584107796,-6.504504161771161,5.189677180303599,6.501557200036819,3.6999194507269437,0.08275519222267502,-3.290541080754185,-0.7135996414822938,g
6.425217381772145,-7.472872998369598,3.5187804290028764,5.301324463231255,3.312877652054771,0.4635588849059574,-4.247594090349584,-1.8284562095296315,g
4.958181334349147,-8.377343986272749,1.8939146879567221,4.035619350613955,2.3449528175536893,1.5526964966447718,-4.938341436143274,-2.63357382626361,g
4.067118292746881,-8.257037912359314,1.084262644684779,3.5938504736597685,2.0783190155531472,3.9220368056137835,-4.477129733894422,-2.216117698277725,g
3.7458042144828974,-6.961969673423036,1.0234190718996239,3.898451673585793,3.000656477247575,7.342825466541674,-2.840854515398373,-0.6623835870981455,g
3.2468285446438556,-5.159511979968048,0.8958175206352179,3.9741369442051884,4.764259949165009,10.790969465673504,-0.8806117895292616,1.0120269830019288,g
1.832778873979748,-3.964378434337147,-0.12665639081704008,2.8206599287134457,6.29833928828658,13.125857499428031,0.3856571646364004,1.7023480400022581,g
-0.4781864083579155,-4.216745137304288,-2.1242437628557185,0.29935999344431874,6.300533367404387,13.874746535265094,0.5652510649427227,1.059879726902535,g
-2.8460420519907412,-5.691317283997643,-4.285276864236358,-2.7246064466310402,4.437351300546017,13.48488301187308,0.13198065041508852,-0.3420936846147183,g
-4.259791697200308,-7.13702918809822,-5.528066193239036,-5.049232091383836,2.0283156158699764,12.849081448998783,-0.05354774643904285,-1.5654170630489366,g
-4.3102932075487725,-7.407544090512033,-5.3580424722944375,-5.99328320477659,0.9461638004232723,12.533917375306642,0.48784778187343714,-2.0440948908879752,g
-3.4257468924199346,-6.476848935736188,-4.185947924568554,-5.744777191088902,1.8610179136438376,12.392806341571564,1.4880393396653462,-1.8958613645294355,g
-2.4321229933726016,-5.178848414719762,-2.8598503338302277,-5.010762743391668,3.992443691177428,11.854863649558991,2.2684945728851136,-1.6422131164558862,g
-1.8879078091261565,-4.218102323585645,-1.9364905102574048,-4.366212838953061,6.297034289030018,10.533122044598022,2.3839224507751413,-1.68229300187039,g
-1.7654521850530998,-3.764938310495056,-1.3803532438243513,-3.8697827414264383,8.171559280521256,8.567563459448703,1.9295463242483446,-2.004900486070993,g
-1.6648827314538948,-3.753833573652441,-0.8294272315260885,-3.195143505774836,9.171840426029693,6.480570585919691,1.3187205685758685,-2.3154830091029277,g
-1.2685054777008506,-4.036798143566198,-0.02786241641953806,-2.0565621246411325,9.044160342343968,4.7922705019589555,0.8903025587687363,-2.349378228848993,g
-0.6054912775889579,-4.2515105444789665,0.9686681523071826,-0.5062883067670114,8.324898059700852,3.746998295487219,0.7372784744997258,-2.043970503579189,g
0.042206504012657485,-4.010670485283254,1.8764953391685872,1.1108734573315897,8.145374421204341,3.2829726557828836,0.7817534498421631,-1.4891483638111505,g
0.3767126674654182,-2.792779464612657,2.352200803376554,3.064546703702531,10.046270677783049,3.0962964333270944,0.9120682966230872,-0.28459948402440205,g
-0.06455062607104547,-2.716861511430979,1.7041034774330797,2.9110149422257523,10.116445565137548,2.8544852072197386,0.6583512024805401,-0.17035210913755336,g
-0.9602221686861757,-3.2449203243827762,0.417012994831434,1.8077766630544627,8.61119663187316,2.2698265677270006,-0.05900255594676236,-0.825847899634377,g
-0.9602221686861757,-3.2449203243827762,0.41701299483143395,1.8077766630544627,8.61119663187316,2.2698265677270006,-0.05900255594676231,-0.8258478996343772,g
-2.3461858791129,-4.359838374563238,-1.5318874257988084,-0.2034748396610742,5.674231056698195,1.3338177677086527,-1.2974077352917308,-2.344087801288992,g
-4.089860332510159,-5.884454991827121,-3.9781222432470855,-2.7595635646940915,1.9861722481935409,0.3016761223451257,-2.8032397425954003,-4.360337677331883,g
-5.807194560922257,-7.187669830855039,-6.437300666404825,-5.1972591732509175,-1.152451947201363,-0.3397167703112249,-3.999360045953471,-6.135395143626559,g
-7.016637386791598,-7.422574376360653,-8.293306766874728,-6.839991403452653,-2.321605333115826,-0.173928655860533,-4.310130716419246,-6.971480856543837,g
-7.436961997894653,-6.367082997034068,-9.20755398928051,-7.380725709304753,-1.321266604472633,0.7497832121967591,-3.6402640121987395,-6.68192141830208,g
-7.154917329736358,-4.741148576904062,-9.322212909919616,-7.0493377427515735,0.3603740917109165,1.8238711940045735,-2.529083935429655,-5.713324520499905,g
-6.4863537246844585,-3.4254522262268474,-9.028301684922694,-6.387871219878418,1.0773176821429913,2.2658480215688113,-1.7369879124063732,-4.762930368466582,g
-5.653390581969338,-2.590296017964593,-8.555844248871383,-5.79035873573968,0.8076744308514856,1.6714889372922983,-1.6188796262208576,-4.189170740420506,g
-4.600570484234543,-1.8020512482261075,-7.807812233421596,-5.208278479369465,0.9049594431416711,0.23850598204597553,-1.895982251674003,-3.7502077705406167,g
-3.149513286014295,-0.7123346184744122,-6.562939216807882,-4.306070996735632,2.372024069927547,-1.52670423897089,-2.031775282092206,-2.9307610272013394,g
-1.3433885416682232,0.6310670329957346,-4.8186561980359635,-2.9250858141549037,4.9515122030782495,-3.3303244728233756,-1.8229573437268864,-1.5534764085355297,g
0.38776421827752755,1.9060888944730714,-2.9563515068483284,-1.3900996158891243,7.639032466285206,-5.363739737616494,-1.651242047482953,-0.0819353157721558,g
1.4569781107267252,2.6395951994208935,-1.5585348532628245,-0.3286667115524242,9.42534501373694,-8.071731031390007,-2.174545782900953,0.6909732946832681,g
1.5720439581169297,2.452581606158531,-0.9737535067904695,-0.14993987216112575,9.751238408997652,-11.588847233117948,-3.7036634153584025,0.3020185427786939,g
0.9953399250360426,1.5785371691879444,-0.9902008524832601,-0.6641506124861343,9.027566435593666,-15.336141401528,-5.781104105888311,-0.9581890214727773,g
0.35021910596241385,0.9860165565217752,-0.9819445217608337,-1.1984214007364336,8.688833632774886,-18.20029430881085,-7.374664051552438,-2.23525647853168,g
0.1227573478761678,1.5532931759793387,-0.4718976463443294,-1.1207792026247927,9.95150858577738,-19.227333988219804,-7.607400325190992,-2.772502300036751,g
0.2979221759567931,3.1371062494411412,0.42192618269809545,-0.32918545091036017,12.352875290247365,-18.255032109776547,-6.414426336436063,-2.493323587316953,g
0.4591395992565744,4.78912347065933,1.1220727064647211,0.7057827443738356,14.141551241350987,-15.924551614148006,-4.52034102935861,-2.007883394123166,g
0.2539955991326849,5.8449285639460635,1.1633705486710735,1.368757373924367,14.257422236874083,-13.092472757549094,-2.7772353555640743,-2.0481460210466254,g
-0.2144762993424023,6.453758875770909,0.6159732724808789,1.4141334737847004,13.319625386643711,-10.204960106937625,-1.517706959060206,-2.845513439390676,g
-0.43472244148227823,7.095867773467181,-0.004422341051997592,1.1245846322332753,12.539807599779758,-7.147960190795722,-0.4786852435292417,-3.9905384957660646,g
0.08203034261752187,8.01707625979975,-0.17291995791487097,1.014601692290403,12.394843124691732,-3.591436035839642,0.7723901950757355,-4.834986142415511,g
1.3845585403623395,9.191776947855766,0.2669930601531168,1.3892428245938715,12.673824500762992,0.5446097277515026,2.3856508860086816,-5.013735543206287,g
3.038565284416635,10.410920892297753,1.0481123563410966,2.156182950782011,13.10732059065872,4.878762954588394,4.106799755479665,-4.633654615245442,g
4.471755812592821,11.25747867254149,1.7572030463232722,3.009893179412164,13.4247174696707,8.738256198726514,5.5012685378497315,-4.044049896778272,g
5.392289214843023,11.370734478237738,2.2273284098916983,3.7597237601387308,13.313468251736257,11.546338713501845,6.303396482299254,-3.467831568919155,g
5.92503844610237,10.933200754161152,2.694818043776509,4.4790531384266306,12.865418829775242,13.095736693183984,6.595633295354704,-2.8365946472732104,g
6.38326627955435,10.590294756878333,3.542431631561982,5.367636545876325,12.678643183254795,13.492876175218885,6.659955991217828,-1.9375845673444438,g
6.934871854812347,10.707828170356592,4.891119907986402,6.513067310165293,13.061044783107263,12.905838128356546,6.676631130500954,-0.6730814307376632,g
7.495108450337424,11.016895580746667,6.499608026628072,7.8121316576708555,13.57379249596939,11.443685489580481,6.635447104890565,0.8582229038652798,g
7.900788319872277,11.179734808786735,8.05241668222157,9.102665445493809,13.89733488528978,9.265922563032714,6.551618362995711,2.519570861582579,g
8.108436658857308,11.337956857499279,9.431497285200784,10.308098225500036,14.682799802540961,6.673588078032539,6.642240342014416,4.2943786860996465,g
8.168124391928758,11.768189675537794,10.634547881517998,11.395239941550672,16.773789711871167,3.9622194057643867,7.140432237372766,6.196363082024431,g
8.019621908470317,12.257173520352993,11.494973259988678,12.185267467882396,19.76954793996716,1.173557528247154,7.9150529920761965,7.999135585247745,g
7.377569937648301,12.19345467108127,11.58680835379646,12.260956631582841,22.063956840644348,-1.9398051202585702,8.360434358508563,9.117506996015397,g
5.884276455180482,11.156482322729882,10.442933364567262,11.150607524880455,22.285591712313387,-5.642926016554318,7.742880818848201,8.861365952913456,g
3.4299667803494223,9.16666589016405,7.895383904847148,8.69252203475621,20.22207740444007,-9.860374329316656,5.72392703512828,6.906209344537528,g
0.35181620868308877,6.571268786312213,4.27734638840308,5.2640571680539,16.574319597664164,-14.03589020987126,2.639318351070189,3.5788997426396456,g
-2.7017575504378444,4.01352224314884,0.32148095812953575,1.6302833456322787,12.516542847776503,-17.361063435023375,-0.6771668148146082,-0.31188698600439835,g
-5.169030840889397,2.288869354606681,-3.2383056391115908,-1.5054261558803699,9.342003715252353,-19.262626630660975,-3.423471546864202,-3.9866551744187246,g
-6.910991417447223,1.7379544003960987,-6.096689295113596,-3.885691395373267,7.589716056309638,-19.798371181845205,-5.350206289280413,-7.138454232890576,g
-9.355768992699502,1.477202627819608,-10.618947157390625,-7.269969587147902,3.523211631104181,-19.397859122399247,-8.50314392905526,-12.71799860667213,g
-10.44354482587797,0.5162009713721434,-12.597448731167221,-8.624572898114936,-1.1679797335016402,-19.44264306628533,-10.471083377858921,-15.376702031238498,g
-11.173155965466693,-0.4830929898623005,-13.984800618564872,-9.470681808286912,-6.390032167911937,-19.462735391065173,-12.293492370445835,-17.433035370066804,g
-11.173155965466693,-0.4830929898623005,-13.984800618564872,-9.470681808286914,-6.390032167911938,-19.462735391065173,-12.293492370445833,-17.433035370066804,g
-11.160928880238977,-0.7404009707944044,-14.297453353184784,-9.392115532642979,-9.963850174830268,-18.981418782786825,-13.226740894860743,-18.256973863446213,g
-10.213806872004682,0.05216433811023791,-13.299336219484655,-8.170159470629113,-10.605355826443349,-17.7298378581988,-12.753581872290264,-17.50759616730828,g
-8.43457765711104,1.7741444525169225,-11.091775028888126,-5.927375823605458,-8.292247215445961,-15.791930189354535,-10.84179985047221,-15.315534478184185,g
-6.114492187206355,4.071661701121038,-8.012393126106243,-3.0236183970174815,-3.8841530087693044,-13.478573989234281,-7.866244871844577,-12.127561364921348,g
-3.5596354638354497,6.371239840025704,-4.484302594686902,0.1551254355267325,1.1362181291688864,-11.118141297931825,-4.364158700429253,-8.414059055413638,g
-1.008633197826626,8.122245854337114,-0.8859156344460943,3.3132010043888904,5.236233962517009,-8.928596020841898,-0.8028614848615788,-4.50653645215634,g
1.3292715086855718,9.284462028247876,2.5058513376179263,6.204597271924522,7.907931852636382,-7.0320749875077215,2.527033447574559,-0.6499546763103504,g
3.2246833560330423,10.322078548745758,5.471429869893899,8.558733108702082,9.948257602403329,-5.555891979516275,5.454637316801185,2.8689585132664646,g
4.486546091934196,11.545823019311255,7.8014518825315635,10.123322992423343,12.217950430508477,-4.6730520822395265,7.8083154687001795,5.710693005971405,g
5.107263167510686,12.736432048415633,9.37235228818928,10.814107592140783,14.41708138237399,-4.4940784644088705,9.405498724894466,7.634095979551911,g
5.32805760501482,13.575908055353612,10.266007841043194,10.804127434199648,15.490692159476847,-4.931399059016996,10.16808426377741,8.658814827110536,g
5.495326695546495,14.098965842079334,10.714251798006588,10.420555171079938,14.815972463210665,-5.748742571211298,10.172650705651277,9.046779595766095,g
5.78842062043176,14.434866593370767,10.85667609520271,9.907466119022788,12.417904418830181,-6.796241426271623,9.52238058002151,9.076279725212238,g
6.053643367105481,14.399811623705054,10.582720543638086,9.250851440329466,8.422083904096532,-8.169543784898169,8.200283245160595,8.793744222782431,g
5.901215021419306,13.709974697966889,9.647467035725196,8.21508575926283,3.096253044730399,-10.089024367645804,6.1128416535471555,7.969067223120364,g
4.996757913779378,12.419468577063448,7.921020039718013,6.56867696356944,-2.7114106630749513,-12.607503749609638,3.282815752055472,6.307613455062851,g
3.33093154780994,10.820051599392857,5.529886191030609,4.333080172220652,-7.967044636467925,-15.41969092056124,-0.020028692343962894,3.755292598983087,g
1.2842805715381982,9.073296320914656,2.841090850020027,1.871380654233255,-12.359565685273248,-17.91157057970826,-3.3045535155417354,0.6639987589440445,g
-0.5517321919173339,7.2858167141765176,0.36129982777252734,-0.25543382092726796,-16.23203779685247,-19.389400637805704,-5.98048451775386,-2.305301777093304,g
-1.6895411252032475,5.789639866970321,-1.4378314311443052,-1.5752634841650326,-19.622874538175573,-19.358276956008076,-7.533037349362511,-4.485334333119775,g
-2.001817197408573,4.924082431010912,-2.3380880079870625,-1.9443071157578626,-22.031586988613764,-17.716015721916563,-7.726977557346123,-5.523921099999923,g
-1.750434111380087,4.581565055105741,-2.4671417611975826,-1.5844487191593841,-23.184197599409977,-14.74240452042226,-6.716327427955076,-5.520674332861768,g
-1.372085687354501,4.35256408686142,-2.14057387439781,-0.9113246311179808,-23.320808951239194,-10.887535085710404,-4.926489958485283,-4.893923413319907,g
-1.1832997440453314,4.110287887045527,-1.6015658261032168,-0.2862314938914925,-22.55878818594872,-6.54754517416774,-2.7936281722634546,-4.083557448714247,g
-1.2085294174031884,4.082660492107829,-0.9107001641194259,0.15062109093899798,-20.689799985875226,-2.014265575436804,-0.6045666992188166,-3.3064965992638564,g
-1.2061348737265565,4.353335267381653,-0.006952245016468073,0.4988679392394689,-17.90951550338975,2.447190506965452,1.480155808890407,-2.5077954539303784,g
-0.8214803190709802,4.7181974600984455,1.2279703995365006,1.0055156173447772,-15.070168989987442,6.5823565955783305,3.3686060062055647,-1.4789543528805784,g
0.2263485377357634,5.113870534209247,2.935704984056353,1.923175299860438,-12.77062377003054,10.223905124395394,5.03502666572754,-0.031950133919704624,g
1.966519321609025,5.745700334329138,5.151069246743526,3.349114961657647,-10.75255728059663,13.289368392590948,6.461840076088845,1.8377812229840391,g
4.0561770142651214,6.582157775354579,7.596397596351705,5.082205379060128,-8.670473290984793,15.621562744676334,7.469727295752376,3.833778128143704,g
5.826546205137104,7.072523045755368,9.647886687805272,6.602382392416151,-6.953946856356576,16.861273169968918,7.631519933002437,5.373956462949487,g
6.575205704489413,6.633332753546883,10.62563764435124,7.2883442301698524,-6.349283152495849,16.58688218797849,6.4814468240093746,5.835130265719431,g
6.003302164836795,5.214603185280227,10.232070644366411,6.830545409709292,-6.978302587545644,14.689185745260641,3.9195189795089744,4.959526725712642,g
4.499927051997751,3.248021140645636,8.806817943701532,5.556492867199532,-8.370347895722102,11.676516116272111,0.46306978835933793,3.138106879882524,g
2.983474098178264,1.308272201414671,7.189519130974266,4.3310568885975815,-10.075229409390692,8.595838307065865,-2.9082265586383613,1.2777766987444008,g
2.3008574603078418,-0.0499362756230437,6.211575940660924,3.9839088783363237,-11.721092584723142,6.510343009018688,-5.269904282888061,0.25237075704720596,g
2.5760219668308535,-0.5425382641519724,6.089086549146613,4.653429402336453,-12.865969900150827,5.8349081492667585,-6.323239892120895,0.3061138409168481,g
3.042639711893866,-0.6047542069493164,6.185092068235494,5.601857276820025,-13.493925123042114,6.052793244459017,-6.594307551979594,0.8856460165233541,g
2.5831441214328197,-1.2947355699306295,5.4657649338131655,5.728918051892131,-14.409883701757465,6.1463624818411695,-7.0065281550508685,1.0858304641186496,g
0.6179966465430418,-3.28183171019745,3.389282112316695,4.43148175328202,-16.367828433451148,5.483474446721612,-8.06634869327536,0.4049669032059436,g
-2.3575655715453414,-5.9870504127060205,0.4626947106748256,2.129455416981572,-18.841029581133228,4.419435807035121,-9.343325684121774,-0.7861350085030464,g
-5.058528831322151,-8.044012766097184,-2.075989294484341,0.006212277827649082,-20.340299889007284,4.05400927534407,-9.764901738453284,-1.4731361875528532,g
-6.0441895346369146,-7.847590761253443,-2.865384517330244,-0.38765081804309337,-18.509836343330914,8.135852652869028,-5.7912999620119,1.2696755616219435,g
-5.156418617796022,-6.872980648394193,-2.0412180765102246,0.528308049094671,-17.04858174353124,11.350298134727831,-2.737694707787508,3.7286230709077914,g
-5.040856635167525,-6.738467211044911,-1.980631091589436,0.6112820118236771,-16.62875527567102,13.44196390136582,-0.7284626957952829,5.321185450528768,g
-5.040856635167525,-6.738467211044913,-1.980631091589436,0.6112820118236771,-16.62875527567102,13.441963901365824,-0.7284626957952829,5.321185450528769,g
-6.412855286420206,-8.048815119616446,-3.2819760951250077,-0.7368013500573914,-17.66492213048599,13.552993748999821,-0.4417513137000286,5.359331319388134,g
-8.776044160102305,-10.460354945765964,-5.386996995695217,-2.9679010091076585,-19.780142206731774,12.059066930147551,-1.433185548717471,4.184671329213165,g
-10.77795268574462,-12.676992688207694,-6.936663413075243,-4.7948901597945035,-21.602703670167422,10.25554191668397,-2.4966875276511313,2.8566023066041377,g
-11.200457931073265,-13.387598291677026,-6.772331042867483,-5.146117381268459,-21.580952540076073,9.366160742452971,-2.587156799066265,2.341927905989192,g
-9.814777781103833,-12.45476500115181,-4.792162284799639,-3.9166452418340043,-19.545112559724576,9.637511483124971,-1.6143257668300575,2.8283524214257083,g
-7.462995094059762,-10.97529133033635,-1.9522661583082719,-1.9655423784544968,-17.030395282968414,10.229840065192189,-0.4658318562689484,3.6659954385620255,g
-5.3585069444382025,-10.115059745196977,0.5351628390150366,-0.41446246088163124,-15.66939992089381,9.944682899022734,-0.25973558915412676,3.9428665045103863,g
-4.193280884214238,-10.139406270333074,2.0731182448208294,0.1782134836068387,-15.655261490118614,8.15459392640236,-1.4871790542232977,3.2115517038562778,g
-3.7363440699538133,-10.552519621904853,2.945631309500816,0.13810532609291598,-16.04680017544883,5.21943768987367,-3.7287298309677914,1.793292768403306,g
-3.17820198873607,-10.723970115421626,3.8981999669431673,0.28316735284850514,-15.999928774648936,2.1569661571355483,-6.064796723607458,0.45531625819786636,g
-1.8904096404727633,-10.210973614166779,5.441935989858559,1.1768919968357696,-15.234435614860283,-0.10886338252766588,-7.769995309701107,-0.23417313603480688,g
0.025092208087341205,-8.911446594158638,7.393253762450845,2.647127397758213,-13.847367997232647,-1.3513171854767687,-8.775274219289285,-0.339067763871021,g
1.819910866017286,-7.248074547827093,8.97534270052854,3.9442605338268564,-12.345494763662789,-2.064724774154199,-9.603353195111932,-0.4480128424877622,g
2.7057381707327575,-5.9482234373856615,9.417754025302685,4.365368246417862,-11.539673143789667,-2.916393942400423,-10.84163226405703,-1.1470898016516644,g
2.4391987477670867,-5.3467726981486114,8.554077417826383,3.7896310072338997,-11.762347685539819,-4.114072258499003,-12.578761779409021,-2.528958992375144,g
1.3866251449404472,-5.108807965166448,6.862608119299151,2.679711138768812,-12.403725788158273,-5.266035235798563,-14.314078989166939,-4.150485412046509,g
0.0703976265560593,-4.872591882131883,4.935807530367807,1.5994988485842208,-12.790575714264804,-5.828292879945256,-15.426707961634586,-5.445199226297587,g
-1.3166847055649824,-4.874027952528267,2.969579103756128,0.7284527502492895,-13.248355476057487,-5.635577251395239,-15.706644904031378,-6.177411876818413,g
-2.9512365068178155,-5.563761029746813,0.7976753068070787,-0.17724400655981018,-14.576474746925285,-4.969712513614873,-15.39297412449801,-6.502667143105649,g
-4.978210434211959,-6.803740959613846,-1.6566845687667655,-1.3791977325394118,-16.6139887850703,-4.166805559811296,-14.743572095796125,-6.617988724292028,g
-7.126055383423183,-7.868087639482916,-4.067904429541305,-2.745202424699501,-18.120898085502173,-3.246876502916207,-13.674583462071562,-6.416388468451041,g
-8.766717989918188,-8.193345973568322,-5.857001542425471,-3.767176140234107,-18.184056906602592,-1.9594160982529842,-11.868110560530145,-5.543588539767882,g
-9.392707931000192,-7.818717848373943,-6.629403638333341,-4.008479505440298,-17.112581598656313,-0.17013426327104816,-9.205210813541381,-3.8124165244513195,g
-9.058485252751321,-7.177573730190805,-6.499775783822962,-3.5393124923614936,-15.838524167385392,1.8151119788258927,-6.072265608238137,-1.536787687913704,g
-8.343419543636674,-6.7845108170667485,-6.016531614683933,-2.910030890636049,-15.017657812371928,3.3319086650720875,-3.2326708824983017,0.5915396650844527,g
-7.832293554966969,-7.007810333529791,-5.698600488239758,-2.654939108842963,-14.791301924853517,3.832881960770051,-1.3261055637869967,2.0144622232363902,g
-7.575504703778103,-7.697104232935399,-5.544239554036843,-2.7845640410531223,-14.742364412790588,3.365341118281608,-0.3831848071034418,2.748750160729282,g
-7.036645568587561,-8.015490816456477,-4.995058093189689,-2.7509505749704033,-13.877994642499962,2.5822847586255495,0.19472136753340533,3.338850026842137,g
-5.592460281265785,-7.082745441219447,-3.4685792871884558,-1.929320971678924,-11.369111090826877,2.2088011404653907,1.0926238929693848,4.341620347521262,g
-3.136593541213055,-4.9360627924229785,-0.9743347287571973,-0.18421731769244473,-7.720490902721528,2.432017825483411,2.4316616996141027,5.796312141210883,g
-0.2530284926755339,-2.548079618822373,1.8004942254014318,1.9734427979442704,-4.659625279630026,2.7920590803894414,3.6372323079795215,7.15434780784873,g
2.1684354675445907,-0.7962988093514177,3.999124926782727,3.7528981046083487,-3.419798434533438,2.6581349772551683,3.957451695761569,7.726808727163453,g
3.517586103668247,0.27660630030673666,5.176300959024896,4.637947973812984,-3.5528533634312813,1.8102868732175204,3.1153860089804457,7.2398860204661615,g
3.768427294398691,1.1146095263784548,5.459766520313717,4.662190488483214,-3.7931169214438647,0.6068153289664266,1.4965010421198286,6.005815969216026,g
3.312482572530341,1.9780413715932859,5.2717839900820564,4.211838377960533,-3.5794228658057543,-0.3390136278806512,-0.2178053044964546,4.586790959537902,g
2.5314721880126907,2.821006555475933,4.919444917136702,3.5818730931363687,-3.257742536095196,-0.6358717811024291,-1.5776648340326287,3.2893518423466723,g
1.4896145461546673,3.457917780926175,4.3520851888384495,2.7007413862462815,-3.3117889818675983,-0.3593475759270254,-2.6280031089746627,1.9476767731193232,g
-0.03168663987601859,3.549848108233404,3.2341920430495277,1.2470710044328215,-4.060714390978622,0.08607585469300158,-3.7567957456599856,0.1607936638704226,g
-2.2387948895258494,2.7115547806170666,1.294173055035119,-0.9813422869454811,-5.7514700492968425,0.3473701822827744,-5.26822847371044,-2.2490393804093314,g
-5.044166782472805,0.9710150725351454,-1.3197926258574004,-3.7812783825565957,-8.203850900281962,0.42115228969193075,-7.014665571447158,-4.949256878987557,g
-8.024772671399274,-1.0710830481100984,-4.017593742056142,-6.572299025285484,-10.530899401273054,0.6010451945655004,-8.420867336413394,-7.216237770709943,g
-10.63408781024022,-2.8517371734773986,-6.134507216777342,-8.709474645745324,-11.90097651202839,1.1176752271979447,-8.927185914864053,-8.378631509846386,g
-13.474355509517718,-6.284999249571898,-7.785967229840435,-10.064498894616715,-13.23321612943244,2.247920852625826,-7.494219001463206,-7.2152134523723195,g
-13.70749554878781,-8.369180248006531,-7.773138186833966,-9.726495869128726,-14.315513351913813,1.953853396561189,-6.629782864766689,-5.888108588032456,g
-13.271114812932685,-10.20793967244792,-7.527643763873925,-9.09818272797374,-15.182772253399847,0.901410870294697,-6.144447839306354,-4.632751726373757,g
-13.271114812932684,-10.20793967244792,-7.5276437638739235,-9.09818272797374,-15.182772253399847,0.901410870294697,-6.144447839306354,-4.6327517263737565,g
-12.104525074538781,-11.29440274687666,-6.975796539994711,-8.127227480782752,-15.347671945167344,-0.49862377017472176,-5.825880411123387,-3.3182181856114292,g
-10.065498807869371,-11.375072406610737,-5.814709518222472,-6.5288268176265,-14.864156956143919,-1.6473141769515816,-5.197274484071899,-1.5104384396372117,g
-7.175772783906903,-10.394540008872891,-3.820771566755917,-4.148249944531874,-13.818828972347731,-2.175225037943353,-3.949789739286184,1.0507522081684049,g
-3.8460280140586014,-8.661159546787454,-1.2306127853526756,-1.300746827931529,-12.181088560541546,-2.2391270293332717,-2.302321757408524,4.062264348536469,g
-0.8306194395044099,-7.038861640887225,1.184621864082145,1.2378781281479627,-10.393999757003924,-2.430668402483667,-0.9818000521172351,6.695311783851993,g
1.1538000407607816,-6.450669182764618,2.5651352158904515,2.662826813910681,-9.364922568932172,-3.2790501801036465,-0.7253934196379855,8.097913957382607,g
1.8897483342003647,-6.997130251190701,2.602400443035353,2.6967894758705557,-9.448601204078601,-4.726532538882182,-1.654308846203806,8.006541837231667,g
1.8015259456060573,-7.870980925704788,1.7649995473203421,1.8108749881313575,-9.978798156212346,-6.067112222639966,-3.096263566630614,6.957209031686581,g
1.613771604469174,-8.260192470505139,0.8882091383419903,0.8832229597277095,-10.1742733047662,-6.440330120363811,-4.060350002176852,5.880301238154418,g
1.7767628582451516,-8.070932954830024,0.5106856498460899,0.5313065520640543,-9.997891252222836,-5.459643889699967,-3.9510000053406253,5.389094391298693,g
2.119169775914668,-7.745324472025201,0.5024268216068963,0.647054979263158,-9.771409996545604,-3.4684481069242112,-2.929777325703873,5.3433475313499965,g
2.0157777807053936,-7.769491426378503,0.2216069805567785,0.5233056959041563,-9.523305315297078,-1.2685225710638794,-1.7024464056064748,5.035492472190731,g
0.955247938443739,-8.468608640994336,-0.9311879882293059,-0.5122194773861575,-9.206315752242018,0.44707156080955385,-0.9501350869920481,3.8341112958780625,g
-0.933572299300328,-9.814559128819806,-2.934575824131818,-2.4622983819307045,-9.019239550618153,1.5605617723505048,-0.8063393873521681,1.7666155348276646,g
-2.839481801362284,-11.129347997987455,-5.00152222191511,-4.551332397552134,-8.881296300153299,2.563943850285563,-0.7403113417598342,-0.41500561899958993,g
-3.791080677842113,-11.332809476952914,-6.081560036986116,-5.751507588693196,-8.000264261681576,4.104575197046929,0.02370456219996502,-1.7399206203869864,g
-3.3562152888704153,-9.89849593024022,-5.662854633142802,-5.537546761392797,-5.695973025305959,6.37229970058507,1.8312397156369165,-1.711925841151458,g
-1.9649437679321284,-7.454452574554753,-4.18188585593773,-4.281619660130951,-2.478935772395539,8.83216320700565,4.227639606246198,-0.6613198781517305,g
-0.6049783544994219,-5.213801181329193,-2.6889018501177118,-2.995636393266989,0.2942796513328565,10.524019232368895,6.226023053399406,0.5036285595218751,g
-0.13892575927713224,-3.970104357934858,-2.1026329875827927,-2.6355447334457183,1.704316267258159,10.664808003466433,6.969698316238597,0.9338649460754986,g
-0.751843385369025,-3.78700189089937,-2.662338513386187,-3.486038339861227,1.7150242678284804,9.09809864568308,6.243504182122772,0.3782760301698108,g
-1.888994617273037,-4.295231550148996,-3.8856975322844085,-5.042088533101211,0.6426423430390967,6.344871981507581,4.520733720073861,-0.7381354764157189,g
-2.678541805629472,-4.8936443147437325,-4.953545206581942,-6.424921403006127,-1.09061119127028,3.292937145692524,2.617192982872921,-1.6934891422324867,g
-2.5313683823415825,-4.927576206142173,-5.2749841216597835,-7.009173949796772,-2.832240071473753,0.7047288371781555,1.191087960715123,-2.0080589923851235,g
-1.522273592640724,-4.227616153294602,-4.912479217000763,-6.825350395229352,-4.185153240697209,-1.195285136967691,0.35220869232322455,-1.7842735094414253,g
-0.30873161086652195,-3.4791056599811987,-4.547462540161048,-6.481766701622135,-5.737509678212714,-2.7675893771410665,-0.3575453952896913,-1.6336385508838833,g
0.3449631522411904,-3.6416210754153804,-4.949313496952266,-6.683974776193814,-8.572529319154182,-4.557495784939096,-1.5346547905707058,-2.234157692015709,g
0.10066499697306037,-4.921476631222596,-6.3510989176636015,-7.6903795570715925,-12.80086589942517,-6.741800233074047,-3.339989171600462,-3.8083370246344224,g
-0.7225676313216538,-6.561558156082137,-8.233211790543773,-9.066933871114497,-17.134490988403975,-8.873706887626376,-5.26299049309578,-5.8848765462181,g
-1.3472137381641527,-7.573191934391299,-9.62872599578441,-9.898129564314527,-20.088156335844452,-10.118236035420633,-6.407481175362375,-7.522773179021158,g
-1.0130456716398293,-7.350728985761023,-9.663753199174574,-9.323253458396401,-21.042706208336476,-9.781373848476312,-6.036404770483733,-7.856705352820842,g
0.5640371279139288,-5.701116808346435,-8.007792462105535,-7.068264475464304,-20.029855174626043,-7.774067328854043,-3.992028322436797,-6.609483794602935,g
3.0115431444878693,-2.841617339350621,-5.051374588305601,-3.6435357625383786,-17.294649815028244,-4.731436536731319,-0.7894559100472813,-4.25114903420263,g
5.505254055515201,0.4746645829040476,-1.70740670351387,-0.078840830650479,-13.52270537581353,-1.6874957276950966,2.6434554206313385,-1.7108704048577104,g
7.249479669686527,3.3116326671856173,1.1256328098952477,2.6464271009113913,-9.810169415478782,0.5392096462609771,5.479056217818488,0.1839345445890114,g
7.940668492585641,5.35818563702406,3.1102972657999155,4.125880873589712,-6.7317204906799235,1.8377894191160018,7.4643279762729975,1.1950449015646003,g
7.9086140242699345,7.1650186377669955,4.589874110517535,4.674095125501422,-3.7795631012815307,2.777100740819718,8.985935529898967,1.7656402092920254,g
7.833795760587664,9.396510442145914,6.182389121772046,5.007410276489492,-0.2237344633936285,4.0615637821224215,10.642325064826275,2.640926096091588,g
8.234226970778494,12.07451488573334,8.20854584625853,5.6729755420252115,3.8065543642255877,5.917900134607646,12.682898908071552,4.274957400323375,g
9.082369993950307,14.665670588948577,10.392909705806996,6.623533287054674,7.523600371145074,7.891392212939651,14.770872393218493,6.450219266219809,g
9.827497394043842,16.559393095355468,11.996413883547124,7.249103736848849,10.306985469890346,9.160646196922565,16.19690186715585,8.386290037412852,g
9.81782964766654,17.256748922249212,12.268679177097734,6.854236395764727,11.766126429415829,9.109174516413654,16.335810069924932,9.258572267732514,g
7.25929576009711,14.691881986164228,8.623748528785915,2.8979109277122346,9.276481236933005,5.869383966269676,12.903215542527885,7.318445983569118,g
5.901767121830074,12.831709641981456,6.20843906204738,0.7753929677057833,6.184220096963683,4.349261354365134,10.74107691745917,5.786976364981834,g
5.291756374270685,11.763529356475036,4.4715463421310035,-0.43684097070099537,3.3953502756410545,3.752452499130495,9.243061966900465,4.840383336161738,g
5.291756374270684,11.763529356475036,4.4715463421310035,-0.43684097070099537,3.395350275641055,3.752452499130495,9.243061966900465,4.840383336161738,g
5.30115304294648,11.342708082518394,3.4147986125042977,-0.7467248411370828,1.1751306799775245,3.8747821787176497,8.403088932166657,4.495072075316487,g
5.2404674632037125,10.774681341653288,2.4394744749604005,-0.8035769313030329,-1.1524069160363735,4.0317301831234325,7.652752480358195,4.155566015702023,g
4.433118179432185,9.631663901383671,0.9865409678691603,-1.3285132955103776,-3.9455857145983373,3.6761975450674966,6.440546470074334,3.15479303765064,g
2.780660006122896,8.229297342023068,-0.9246201433729044,-2.497671862135962,-6.702309198936488,2.8241315241798466,4.748006422367925,1.345398207924769,g
0.8550719302082277,7.1322422093452955,-2.680699956735169,-3.785771428994414,-8.818317183732029,1.9705737290540817,3.1218244853038635,-0.7447316077772396,g
-0.5464866566449165,6.681312815548104,-3.5325692524801546,-4.40266773202734,-10.15393783028771,1.6337015456804447,2.2630143339163764,-2.3079733049311573,g
-1.0172604787524981,6.9258300577975715,-3.1752251035601495,-3.9660112074711096,-10.668045020858486,1.9018826884716369,2.513360307642047,-2.8737535274175094,g
-0.8330179501224473,7.5572650691192695,-2.0426950782974607,-2.854536679066764,-10.201310610886342,2.300902744838342,3.58232202943561,-2.6591782974086753,g
-0.6874816202903371,7.862945458245845,-1.0540051376929225,-1.942585125888296,-8.944036501460152,2.0875656349120737,4.714252115848967,-2.382202539132872,g
-1.0905848457576828,7.1900649275455475,-0.934957481208853,-1.9229237702899564,-7.513807583144066,0.7872919611377439,5.229117740010258,-2.678519517754005,g
-1.9372555609905002,5.630260747107981,-1.6671289985202282,-2.767916357782677,-6.203250321335303,-1.4383997167459994,5.0338340524472285,-3.577796687035491,g
-2.61162675862781,3.953986277591427,-2.571765516770614,-3.7658067534696187,-4.68224669974488,-3.9137496684538737,4.643823894547825,-4.461525953199518,g
-2.520862438411977,2.7738906559939296,-2.9323206640681385,-4.090028517295975,-2.8069526339467457,-5.9413186690971145,4.687378176735165,-4.537050649199087,g
-1.5909962372319153,2.0845671070576617,-2.552755153608325,-3.430508290447667,-1.1606791480590894,-7.212366079453922,5.368727821929655,-3.4379587232521254,g
-0.33450798591149006,1.6877946492150009,-1.810463350279619,-2.1989437957710742,-0.3110688605865657,-7.830012381227495,6.351526301813081,-1.4813666521399285,g
0.5135884230515887,1.6343846425538033,-1.2949918911352363,-1.1888518876215481,-0.017142105647317617,-8.04433761470929,7.066941450167673,0.5763470437150409,g
0.49087294186529284,2.0252325285956125,-1.3755791449611032,-0.9789346820203516,0.2877205507913435,-7.974047443751412,7.134740391460989,2.0621869018303784,g
-0.28996146228897207,2.765906112142139,-1.9349914142438194,-1.5128545569395766,0.6508322484897319,-7.4746545132965965,6.636059448530534,2.8133130318703747,g
-1.2019827464876962,3.8365127285337364,-2.39816486437741,-2.13687789262815,0.823421874335805,-6.203591628581703,6.105982409489313,3.232819856599698,g
-1.501495809032651,5.498838836924835,-2.1089806722727937,-2.0727032218916186,0.9334185819504196,-3.897530006467754,6.189521695689931,3.9290174469544135,g
-0.8312146512121397,7.862216890143372,-0.8579123124560164,-1.0120386522302303,1.2284543192265298,-0.7343552241285479,7.114714412028016,5.167051344963051,g
0.516922477413946,10.433877438253525,0.8801194504724517,0.5940342989019645,1.391398239967258,2.531149863333966,8.408919076366887,6.547566383273039,g
1.7934802325642878,12.442819612329705,2.2509697933505937,1.7944596371715533,0.8477794963714981,4.870023077233568,9.188814810102311,7.217839649369944,g
2.3092515979383315,13.485312449457458,2.613340066129644,1.7886121436811169,-0.3342513650367574,5.544903085740771,8.831153330025689,6.505237395000904,g
1.8938780865714704,13.6000709492512,1.9314746487912522,0.4986614678355094,-1.514592665819153,4.5165649270061685,7.455159565520913,4.486289117465111,g
0.9731142184059942,12.944853305815773,0.7428243562996887,-1.354429005938853,-2.3870778805410118,2.4236664055957777,5.847723431199402,2.037716869923821,g
0.23481850397131637,11.78959873652366,-0.1921128347250251,-2.72152870100138,-3.139646357239983,0.18955419202807233,4.942559769120512,0.32297547111266456,g
0.12452389194519498,10.655227037446647,-0.35102661355649245,-2.908532161656434,-3.731465304679891,-1.5013451162789813,5.225089084818774,0.07745021968839658,g
0.5147303597824662,9.967480797340366,0.2102302834576218,-2.0038112189090884,-3.749767837964682,-2.5613554472437543,6.41978021385697,1.176235870924399,g
0.7925262099552662,9.56236672389132,0.898047398528057,-0.7640105351205435,-3.1127602326904187,-3.4405088997919875,7.679664890493351,2.771469981533591,g
0.3250437083990965,8.924012651575179,1.047692218623586,-0.05206800770579738,-2.2234179114174366,-4.653664460810784,8.203873487124635,3.9010804828997507,g
-1.0428724635504782,7.9412860905269245,0.44912574824553253,-0.24459156516707567,-1.222403101757785,-6.268919718158797,7.8261083775597395,4.127902359292632,g
-2.847709751468868,7.083133555250785,-0.5346168913547716,-1.0359986660757223,0.24857803048738206,-7.807679594928698,7.0672006564460315,3.742159908395144,g
-4.3160898679393815,6.81765992995714,-1.3069968235827756,-1.7431452343560139,2.266638782602042,-8.616780086685937,6.630444143594502,3.4165286600176343,g
-4.865009998369635,7.22714676680319,-1.4736503527818667,-1.8390479798331523,4.249469370807939,-8.348909492061791,6.833389534126498,3.63358232506591,g
-4.443814428843313,8.197548752166858,-1.0667765155020394,-1.3244009161348336,5.700073773357217,-7.186365746808292,7.42752909371252,4.325055775379555,g
-3.529428518627166,9.514202675578307,-0.5186387246157154,-0.710812721244991,6.71956634553689,-5.731195038514176,7.82191763664774,4.935078765970499,g
-2.7971934709533874,10.637460348040424,-0.4196286299349932,-0.6523826248366575,7.368763390888239,-4.666647119040061,7.475337465656833,4.81763477571659,g
-2.6572475469494212,10.87478073416844,-1.1101786660894777,-1.4674714566224725,7.152150216017825,-4.340286836205244,6.257833450121881,3.701204437444497,g
-2.9546542211582687,10.109346378612868,-2.351038857507274,-2.8706626214286377,5.7558393318452215,-4.504623337092574,4.603243696136485,1.9166388075230993,g
-3.072654745129869,9.072223628948112,-3.4158194627109646,-4.1222762463112685,3.857928280774881,-4.4598523795836815,3.282582517584582,0.20405052635221868,g
-2.3960431180514945,8.595641200849009,-3.6138032480575397,-4.515422865971591,2.5435651094886307,-3.562854352061494,2.875444744507436,-0.7983361823341634,g
1.2505131455939096,9.032022646336102,-1.4652188543177704,-2.5914357317900936,2.219339556422716,0.5817873510871425,4.100440752029561,-0.9256261612544691,g
2.95502091211234,8.72912495477993,-0.3369494855778493,-1.4676857145339095,2.2265586215211512,2.5662348624613847,4.427666185180802,-1.225334044302054,g
3.804579404203717,7.53783089413169,0.11810648567256514,-0.9805069316840168,1.899107077287806,3.790357902388724,4.027860325766042,-2.182371541136793,g
3.804579404203717,7.53783089413169,0.11810648567256501,-0.9805069316840169,1.899107077287806,3.790357902388725,4.027860325766042,-2.182371541136793,g
3.963525959871872,5.600099913756393,0.08019449780645867,-0.9719905586276049,1.1011587122942406,4.480399447715472,3.256936315608995,-3.3852237707474884,g
4.2174001626575475,3.729304692530241,0.33851865166795825,-0.7082173533918699,0.2244831073489791,5.496548230878419,2.987434194376503,-3.9342690765330546,g
5.406019507245401,3.1603974100349483,1.7491069385643734,0.5745048382695409,0.46985524821734276,7.800696017302839,4.075557199774716,-3.0359272967984894,g
7.725456073952778,4.535792482368839,4.492776779847114,3.033251606955713,2.855367800483368,11.729984685871202,6.69977877636199,-0.5946157791658973,g
10.464615709715057,7.108124073755361,7.7760631361993005,6.001051432953703,6.802132100209562,16.65289628449188,6.761039732863769,2.6548570403361516,g
12.437202839744181,9.282266867472588,10.325945861155716,8.395205479824257,10.350130331414137,16.521758185959577,6.52145209638721,5.6169054636697755,g
12.780102687620667,9.959456119740969,11.272280963519252,9.437937075258256,11.941832164301074,20.009035478397113,8.031793224802527,7.5505882437695435,g
11.479787442303572,9.158146296978968,10.651848588552149,9.116165079628468,11.529794691696145,22.07860037329038,8.128518828892124,8.459616355598556,g
9.252817682057183,7.539356632465074,9.197572579513468,8.05178108580829,10.006611257337934,23.230304717473835,7.491663587827252,8.891957218813832,g
6.948392879402657,5.776416567908004,7.714535273252187,6.949326359097701,8.307870102003182,24.126908187504036,6.887535087423056,9.398033830180541,g
4.962308566317103,4.299288930442841,6.53917272512017,6.083020641103262,7.1954435944314294,25.045723109276146,6.638868953846601,10.114992661281565,g
3.068977493114589,3.087257222179276,5.389390545271398,5.1888272018132175,7.024038173423415,25.678102201662227,6.484954411877804,10.746172883299195,g
0.7499988847137828,1.547405271300646,3.6786450984866845,3.795631609666221,7.18469142356671,25.391819060138612,5.85963524250347,10.875607437191707,g
-2.245890469981713,-0.9701515574275199,1.1103190802313758,1.7220553468058668,6.3654721854211065,23.791045445932493,4.414430760826251,10.361839824095293,g
-5.546865484705262,-4.287030088558792,-1.903567986483634,-0.6422239687175797,3.952833760356641,21.15564932779825,5.751553600520532,9.532544495649507,g
-8.300496529423501,-7.291078583484368,-4.409999258027918,-2.4981399655481424,0.8697146734583399,23.202014774511227,7.144340592863313,9.023168119230792,g
-9.715666473555414,-8.893019040714313,-5.571160194910683,-3.140765899190928,-1.3364185803731392,21.206537757725858,6.388850696832456,9.345211503420263,g
-9.581288298484264,-8.886091894993589,-5.245363964827908,-2.438842780572725,-1.863464825945286,20.417787418295056,6.763213772748483,10.49038015356032,g
-8.37999419700235,-7.8327657159250945,-4.045475817604021,-0.9416442679848963,-0.8561312507699302,20.561461407669746,7.688950118814484,11.866905067218422,g
-6.952383856169556,-6.508102554287146,-2.922067629962123,0.45670985561948196,1.092130703484719,20.95094605047296,8.249743552989745,12.613010195104263,g
-5.976447775896682,-5.621825704269587,-2.6062028067308356,1.0584937332845565,3.0077899217940867,20.955645165291905,7.713459689901912,12.071317726162395,g
-5.602497811399979,-5.607880904181912,-3.210067778195925,0.7504591690355954,3.640530068719297,20.370468355591832,5.9027882686646675,10.133099067376044,g
-5.458695580953202,-6.23810906621661,-4.193052260610805,-0.008183602890083196,2.413926063623916,19.48984348544177,3.263881312217758,7.2601498186125655,g
-5.013507414239575,-6.6615380602411545,-4.7708778340626905,-0.5802956473752182,0.21530741158451755,18.831859828292647,0.5817022936015956,4.174562024723653,g
-4.0384810437147385,-6.230025989022792,-4.523596926966211,-0.6417631299403443,-1.4012547636777613,18.70414515705487,-1.512136993619853,1.4178519244425476,g
-2.81337761049535,-5.196860331309279,-3.692826375445288,-0.3937848355745359,-1.761240682289003,18.98698211339309,-2.85753791369408,-0.8905565657636008,g
-1.8959265864316888,-4.3275393507717865,-2.885815159543778,-0.320327271030696,-1.3411394255203333,19.34219774496691,-3.6233783735918363,-2.889285982614717,g
-1.6395310362060436,-3.9690498687739195,-2.4777747674127952,-0.6857922117117349,-0.7361117740560175,19.633276619905097,-3.876757082982813,-4.5553772998075805,g
-1.8622467373088465,-3.7865224735667042,-2.2668618821048403,-1.2041143775238432,-0.0630616044484622,20.136607430516946,-3.3328847186571777,-5.445105905146216,g
-1.9429671435780542,-3.2357992200483587,-1.635146057261809,-1.1848016912987451,0.7109690911628815,21.352624318080238,-1.5293001309096792,-4.886707743804685,g
-1.2747908792458298,-1.9509847950363863,-0.03668463380892408,-0.0656448532732929,1.6393495600086154,23.579346364162703,1.7561932509413432,-2.5016333260567825,g
0.2629989806617573,0.13593782258628942,2.530127786583779,2.087186865998418,3.081778002757074,26.546613280775198,6.176342282769232,1.3734430411129424,g
2.164060157893573,2.5522568581842413,5.368555496116933,4.518839309057755,5.360374739443897,29.34644590911762,10.790435926428753,5.723477868654801,g
3.6037175022685775,4.183490808957971,7.415840216301615,6.233979943851641,7.899569716243607,30.761043510798867,14.406905999791803,9.360117193468607,g
3.990678530730645,3.941376416545038,7.915558432254646,6.628667470671994,9.386517420149941,29.86287738619934,16.15913042349926,11.553227808223564,g
3.361368479052986,1.7527871567782174,6.93056324409766,5.841308798067132,9.12303169162218,26.508027137010572,15.940781611988234,12.342204497383367,g
2.3305470654273464,-1.359198660947207,5.256012927065346,4.583385120770394,7.6895840986289254,21.35827674181301,14.336167049124324,12.312645760089545,g
1.6642652184299795,-4.234245378233851,3.834658782672091,3.6171914210668836,6.013239490772927,15.447748695313797,12.105041320555966,12.043725101456852,g
1.8210111700133536,-6.352277612523118,3.207041201107485,3.297394450274605,4.38871729630692,9.67464605723653,9.698020244082947,11.688154789832604,g
2.774481782795293,-7.717356179118693,3.3744787336065145,3.4902493589799732,2.7751271329086236,4.560697903066563,7.177966085383997,10.99262948969499,g
4.1689548226268816,-8.468792662793726,4.0129428749894505,3.8505116062723785,1.4106859022151839,0.31414636115528294,4.467204166674882,9.654483150806199,g
5.628534558928295,-8.794842164992412,4.787248071326983,4.172860883899385,0.5600679796076917,-2.959307123280302,1.608185984925747,7.649550838613789,g
8.332391241602913,-8.25828251627996,6.581890883399021,5.1674043197134925,0.004772541469374581,-5.6152956606499815,-3.3562253754515345,2.9013155721818897,g
9.81199041765294,-6.55409864637474,8.000287225893533,6.201666952434229,0.6427022654694623,-4.292307507762419,-4.678264960279396,0.780448398516323,g
11.48456162213165,-3.5512834182595503,9.865501882163638,7.534640060216491,2.2841229041467686,-1.0392340574508416,-4.991525638139887,-1.0869001585647655,g
11.484561622131649,-3.55128341825955,9.865501882163638,7.534640060216491,2.2841229041467686,-1.0392340574508416,-4.991525638139888,-1.0869001585647653,g
13.238608925108707,0.08028100280003762,11.905934298028807,8.892085424392302,4.310320554635987,3.742500761931704,-4.486357346922657,-2.795661807414274,g
14.877838620451755,3.424693531767752,13.761607977743902,10.014251953101342,5.789246469072326,9.330899019055614,-3.4652607424561976,-4.347681539012387,g
16.243265138152083,6.10023459229837,15.228141659091563,10.801568508002681,6.601482049958527,14.961545520013866,-2.1095773982045385,-5.565906877703599,g
17.273341007039484,8.247029249542912,16.30743068509222,11.33009776416812,7.4166313747579995,20.04226943400236,-0.4279781406809703,-6.180000357981085,g
17.979200372006666,10.017080936609476,17.101522008679755,11.751159955821885,8.71407864457436,24.223533863290914,1.6236164287962764,-5.995224872932776,g
18.363725617368907,11.40739919053811,17.690062150035743,12.145499734194075,10.41647614150342,27.34878515866796,4.010595689652936,-5.011025627142838,g
18.336918455937408,12.36256931158157,18.027293237038414,12.421696440205768,12.281577436066389,29.319392515281656,6.5485078919928,-3.4251253293335706,g
17.708603300330754,12.63051461288116,17.88829534495742,12.343420774164624,13.898091353178287,29.96731986670928,8.888538990669018,-1.5387119005726337,g
16.30831308441675,11.665851280155065,16.97766819615814,11.694793156005538,14.37264109116058,29.089101595952474,10.612838868904307,0.38318115602434,g
14.149254941760722,9.134776437724478,15.185993864234257,10.461655548824087,12.916610313753068,26.652112244883227,11.452994398011551,2.213672014554201,g
11.461068552904155,5.498447360771801,12.724156754895363,8.85801056817482,9.995012418365022,22.936338131147554,11.446051708394789,3.9407876912027135,g
8.527565619539383,1.6933684448827087,9.931769273061656,7.155049315992022,7.181010021633493,18.393041265462294,10.817758840151527,5.5147915687589295,g
5.483972695056649,-1.809629824299715,6.956837749380557,5.461075799873795,5.497279616356376,13.332139001359428,9.68428942693826,6.700271067456201,g
2.288021854442974,-5.30516394414334,3.6843227732567656,3.654349815676176,4.376719484532306,7.7695817557623,7.906109766239093,7.10431729081171,g
-1.0934108658842014,-9.215861481587718,-0.010185700619040717,1.5400547160701112,2.5046829614601047,1.5952528898067324,5.258320067022844,6.409122739958633,g
-4.445737576330449,-13.506307222310255,-3.955797123317913,-0.883044679204248,-0.7990817412084912,-5.093322745064581,1.7369009655361836,4.642402990787625,g
-7.225657100679475,-17.726713623029358,-7.590776071346511,-3.2580142616078773,-5.179406217901429,-11.757119984430693,-2.2690201221867605,2.262929065817191,g
-8.738202814574887,-21.20800638800614,-10.127333800816356,-4.969658809887215,-9.499240518489417,-17.45509880464821,-6.048286946008734,-0.036551947454046996,g
-8.50392118153586,-23.138185860788674,-10.916302719736018,-5.492548056184278,-12.121091291229497,-21.191898890209195,-8.855657232676226,-1.7110091260643348,g
-6.5961256381069315,-22.961351386171778,-9.861195042780665,-4.762874816735852,-11.726095754730126,-22.4264308781141,-10.305452583150322,-2.6921934729300956,g
-3.6905991616819804,-21.031000122029685,-7.581052754470117,-3.284741264053396,-8.660279289296009,-21.39730062703405,-10.622810462282334,-3.427014395103452,g
-0.7400558079154844,-18.56779564952222,-5.087349132732756,-1.8586774427313109,-5.128395428450143,-18.958952336086295,-10.487742475363815,-4.559367394650311,g
1.5207893478938097,-16.64846440070864,-3.165950011234588,-1.1163785653255653,-3.330952879715434,-16.01195515421645,-10.523418293073453,-6.457829140113295,g
2.8861139567571774,-15.378773117512159,-1.988101978659683,-1.196731846002371,-3.477329332953527,-12.989689195793668,-10.856817137540196,-8.938408363645559,g
3.6156574097310576,-14.188537041365118,-1.2412547740716868,-1.768279422958821,-3.9982463402959483,-9.786314831241006,-11.118402158174712,-11.382730413523083,g
4.11650226261616,-12.616660573942042,-0.5458960051738123,-2.3268234884880674,-3.36361894264786,-6.080984923482793,-10.79549324948611,-13.122210731651142,g
4.637177286538246,-10.566783611445587,0.24076038007071682,-2.5268526421093895,-1.1996599930932137,-1.738415151551657,-9.586045510459922,-13.777053935940199,g
5.14128945880021,-8.170675191155826,0.9640498300339739,-2.35039516363589,1.8894250523349831,2.955305593515133,-7.561205669737935,-13.360758986815275,g
5.365441202907423,-5.857870427988743,1.2690662577746759,-2.067081235174877,4.714510553710164,7.299691952743665,-5.159840383032669,-12.184802384642932,g
5.002027428798191,-4.355818575969944,0.8101369432795644,-2.0416760884291643,5.9018350261979196,10.446962929446304,-3.0185554710591296,-10.670494095683598,g
3.9340352455120753,-4.109458849366601,-0.4731497466362189,-2.4814831316459225,4.901642766944879,11.843131444498745,-1.6277465732679601,-9.128575082273574,g
2.3984761905470178,-4.689757916288036,-2.209238383735554,-3.2503876582408218,2.847628751103314,11.55938515564517,-1.007691598850911,-7.58349080632419,g
0.9354980753315942,-5.135731965246445,-3.762520908692552,-3.8896632625599765,1.733387597618313,10.21405994135796,-0.7175510451189131,-5.7780964024421255,g
0.10194617373707615,-4.907687463395961,-4.613221508888709,-3.8861220709185647,2.4415093616250907,8.504207020672634,-0.24210490477314242,-3.415176501999203,g
0.12373181135652392,-4.260991056885587,-4.644327687228872,-3.035586198307557,4.001326145990965,6.70976123113662,0.5722646374524853,-0.48158918315012544,g
0.7391180680299516,-3.793086887423891,-4.162321012496525,-1.6359422032495672,4.825854877092425,4.537285456637926,1.3807225685294688,2.606619893985252,g
1.3686436890068403,-3.9769754567284146,-3.693607491200493,-0.33680499720902335,4.111407460164287,1.3949700754667433,1.5677124945036889,5.1759238480403775,g
1.532590787993429,-5.022795837058281,-3.6479277213991823,0.2899206843071629,2.027758315389928,-3.075764498274052,0.683590979038654,6.6935705704487045,g
1.2540277585984896,-6.663995788738927,-3.975732652874796,0.18217356592781195,-0.600442853295001,-8.538417943406074,-1.147495085732659,7.141633547928329,g
1.1376006123651219,-7.970060794074518,-4.080688283889682,-0.10066531928570881,-2.441733306411975,-13.923721586119816,-3.1419286359693244,7.089980471871708,g
1.987299393720307,-7.859167927651403,-3.1928529482548016,0.2692520025537219,-2.294722024433161,-17.950275456298105,-4.281301019105537,7.33807691523519,g
4.178614734042009,-6.103706647845352,-0.997381649831061,1.7659331893233072,-0.2720645313531329,-19.883681851299624,-4.023978663184558,8.309022677949295,g
10.147858287842848,-1.5541713387613774,4.823928630456408,6.226262508728013,3.069396782177161,-18.96771241304259,-1.3163412253540177,10.409263651518074,g
11.782653188648263,-0.4505038701701453,6.479107817728249,7.230758823531993,2.8011169477582363,-17.787517449706975,-0.6646393956767811,9.70590427624553,g
11.795983245002457,-0.11201809704246476,6.67437720010256,6.757733283309186,2.2751868424950237,-16.58562476677553,-0.9135957087890494,7.379734201463927,g
11.795983245002457,-0.11201809704246476,6.67437720010256,6.757733283309188,2.2751868424950237,-16.58562476677553,-0.9135957087890496,7.379734201463927,g
10.65097124718954,-0.08610549308338741,5.826192130517539,5.307147974561876,2.3005998045372094,-14.934065834929815,-1.5026669041926506,4.117891682311369,g
9.189882226591703,0.08784618351172443,4.699944029849657,3.753126103890628,2.98071123196114,-12.279514272756435,-1.631218167604913,0.9720863754468272,g
7.9437393710431845,0.6429249263994108,3.789544020906052,2.628605496038971,4.029904368365247,-8.562499320550987,-0.8828228565575975,-1.352262462744782,g
6.7547840942509225,1.2061759435395767,2.911044159281162,1.7364294593178975,4.796311185969982,-4.492121796693768,0.4303028831889394,-2.892148834551224,g
5.015410314608086,0.8896431441876335,1.4006989567645949,0.40486268684573706,4.288152686835915,-1.223308187843205,1.4920816990199923,-4.212851593372746,g
2.3119157385632962,-0.8458586069621982,-1.206336346680611,-1.835934152522493,2.022679152496307,0.3404392496962648,1.6367491399210112,-5.774782995078152,g
-1.0939968112447018,-3.5154457265066967,-4.65045399518955,-4.743297124868629,-1.1703907266090152,0.04150109909717359,0.8664749570923762,-7.4271367104292,g
-4.363594913772086,-6.062451261378228,-8.07295648624537,-7.458635887534982,-3.8483303373480156,-1.6355862613056467,-0.23797940399316148,-8.469445841342004,g
-6.648629085190885,-7.827376664708265,-10.62120115970392,-9.116038638188423,-5.463600398744159,-4.089165607338751,-1.0781980323931808,-8.216352957248429,g
-7.621547964960698,-8.803403178531285,-11.950048599231758,-9.430761891098445,-6.622977090233036,-7.0328611267795536,-1.5055878454929807,-6.5615397677909515,g
-7.553655747207382,-9.180352246912333,-12.267751028833962,-8.790179082386528,-7.94755034234594,-10.532712996609533,-1.8358855062793076,-4.075753379283436,g
-6.9521667326880365,-9.08987482366005,-12.02269928256784,-7.829430456720415,-9.379972962501698,-14.754413932656899,-2.5300820963567174,-1.607261194750826,g
-6.106047760749106,-8.706227833187826,-11.51511709163476,-6.8963007708990265,-10.633706237380515,-19.686211596600877,-3.850444842937172,0.25814710861792944,g
-4.901195086206977,-8.120221845737241,-10.681612915120308,-5.847317693018155,-11.537937538093571,-25.015715281614174,-5.68887567000442,1.4756840732836871,g
-3.0130702253484563,-7.058320526084202,-9.201423557714593,-4.294835076114917,-11.711459804744191,-30.216210344192586,-7.641323763853758,2.4028542468115357,g
-0.2849511004506903,-5.108820299494957,-6.855926743020561,-2.0469622561260037,-10.60945482746512,-34.77998426136569,-9.29054515687374,3.39853272995879,g
3.031654014169606,-2.3095544731579167,-3.8143631059060703,0.645288663913459,-8.266421587486791,-38.41945412836413,-10.484935470017586,4.486790421919524,g
6.359938716690757,0.7977197225722555,-0.5644458214316328,3.2177480780703105,-5.45261001882041,-41.082732574713745,-11.361706902714571,5.335278439577729,g
9.104349243952415,3.723543060036495,2.4021225763659926,5.152691178099425,-2.773735959115964,-42.830692652802995,-12.121122119881495,5.527811792634308,g
10.918809765299972,6.2875704690913885,4.797909604349083,6.258068406484616,-0.1558789777470194,-43.74325504046139,-12.820709710277225,4.8803605489774675,g
11.7683063546346,8.299881079377807,6.512282426549261,6.677761368774922,2.4578288808026136,-43.89799416080288,-13.363866492055134,3.5620080434028316,g
11.816959141548802,9.466881960911753,7.52708420031828,6.692073266168391,4.54563443058548,-43.323805124435815,-13.582304685611376,1.9833517960300704,g
11.2707678589796,9.833523692601567,7.906022706702375,6.503060359612459,5.681344858956617,-41.92406572514135,-13.281679254898005,0.5774858450291177,g
10.268969821069968,9.931846440978592,7.773007066574896,6.1482285255970215,6.25950744586588,-39.51293655291003,-12.297901316101393,-0.3877622800829508,g
8.86509460300376,10.188515912238081,7.224303279404526,5.55626850257229,6.924425108452423,-36.01359285670743,-10.617777875530884,-0.8840363363184828,g
7.101416539828991,10.441203243516787,6.2934946050118326,4.67079352046776,7.637544303260938,-31.63737384339131,-8.439949017807665,-1.0524075299351572,g
5.115611687739452,10.291180509240954,5.0372352505963836,3.547695308292866,7.920841153403574,-26.855352582413182,-6.0583176878360545,-1.034155463236205,g
3.163377919047192,9.674089581681347,3.604800958901766,2.3552311085490514,7.716798638951777,-22.20718236858085,-3.6911222655696205,-0.8399321027642236,g
1.500370852773429,8.812869749226634,2.1711747188905237,1.2699519454279393,7.357119352907199,-18.131769200877585,-1.4622443762235109,-0.38470298805829584,g
0.22142172813043395,7.869788207547505,0.8343823443268423,0.3512917287538646,6.909157796136562,-14.905740250216933,0.48564909120648087,0.34671188129026465,g
-0.7727933216116452,6.97931250109971,-0.3749367433054078,-0.4834502464385596,6.2356633109767134,-12.649708982579801,1.9456642402318551,1.188882455665876,g
-1.628039432272378,6.411657278108474,-1.4096385360008732,-1.3420237552417529,5.564566994205146,-11.364575401288722,2.740640797415574,1.8719859400170136,g
-2.3389194341978543,6.321212080696565,-2.172502960220327,-2.198641862823068,5.303632762148885,-10.986186307372009,2.833807184749077,2.214667529903772,g
-2.6900374395756423,6.455308376939071,-2.5421236592823027,-2.852037826189369,5.325811136589818,-11.421243014966258,2.3486163546007055,2.2444394647256005,g
-2.4080070638463944,6.464846112218439,-2.4104469542484814,-3.0611002268563525,5.101067037129374,-12.547278190379199,1.5003453485828095,2.134187634254972,g
-1.4135910941293908,6.404333588577726,-1.7579134180439784,-2.7534072364731133,4.542914933727404,-14.231616420605832,0.4655569697841574,2.0140944834360703,g
0.04632715684115931,6.579268298386788,-0.7565394978605581,-2.118212757158399,4.049484992117759,-16.392468544799563,-0.755394507896694,1.8291445814333174,g
1.5407302925465698,7.007619238475288,0.25548848555018006,-1.476913158893003,3.651733193995926,-19.00072475846858,-2.333764929224283,1.385887156422024,g
2.783309912580478,7.44344740532036,1.00866978623839,-1.0231344162264993,2.8629188102024212,-21.948671270841253,-4.381398989061923,0.5691025701291617,g
3.8420730230268902,7.887989280360792,1.5183270992224907,-0.6715686144731732,1.5820724545647145,-24.927361571018306,-6.699707866750336,-0.4780528936878735,g
4.996620952548715,8.624874434046,1.9942571898633168,-0.1782059551224628,0.4383659116840117,-27.52040013387775,-8.832454961296081,-1.4201024292818347,g
7.710762598782944,10.748297484481608,2.984488778450341,1.4179115203870325,-0.3699584353047471,-30.75002219592132,-11.389090407967558,-2.243979728740439,g
8.590797814884752,11.634279436720977,3.1371129227154593,2.046982485801086,-0.7894928772206115,-31.495600004706677,-11.918209998530966,-2.339003023086124,g
8.772249369786453,12.678024149603328,2.987142747961778,2.312087882163907,-1.1441669780178212,-31.651751744906157,-12.023978499918424,-2.3799453224457037,g
8.772249369786453,12.678024149603328,2.987142747961778,2.312087882163907,-1.1441669780178212,-31.651751744906157,-12.023978499918424,-2.3799453224457037,g
8.404337542208404,14.270805614414144,2.7613214999441738,2.3521609153820404,-0.9522400567117515,-30.974524672503485,-11.505537648375851,-2.2285675074897444,g
7.82306446083997,16.38591543186622,2.7010133571537756,2.4075324841979078,-0.17627565131890915,-29.239637427730827,-10.138093010462143,-1.6835108957061202,g
7.1683469870924865,18.648702993437894,2.815040642086272,2.5035361140180723,0.9015653719770189,-26.519392019094077,-7.9587843296573,-0.7619598019807613,g
6.211848835945637,20.584370324372216,2.811779327609632,2.3508071980339365,2.0827985347139957,-23.255555759328374,-5.355053084610696,0.22455118740483382,g
4.604436334714551,21.69476234755206,2.3160202261993383,1.6162463810410013,3.0701099453584915,-20.00981372189565,-2.839804731800237,0.923636913101082,g
2.3401580128998396,21.725544331774103,1.269582833469177,0.33819346541845735,3.3652215394972003,-17.045012986147412,-0.6463608075706716,1.309417219609361,g
-0.03280475773050906,21.156695707296212,0.1475795533137963,-0.9422430952606792,2.989697806399325,-14.129987412972536,1.4899831117365552,1.7811600188985754,g
-1.7413286761618298,21.062837989773083,-0.3488462245120888,-1.544649298471387,2.9429215381011096,-10.864432411480518,4.039430839307351,2.80780546738496,g
-2.412024813874966,22.040681965150604,0.05758768477949063,-1.235283403896009,4.179519815708564,-7.307633650136971,7.034451946701667,4.379940114981723,g
-2.385182386191194,23.424420280245627,0.8917428570385354,-0.47977399229612583,6.264422034205666,-4.261234800102784,9.731730345520214,5.813252668738057,g
-2.3600168443401754,23.92408353433784,1.3320579296693764,-0.06208514349307688,7.722030140533261,-2.804299613830499,11.049155906203794,6.200825705954847,g
-2.682749226692704,22.946899987090895,0.9716058134224287,-0.37569339876778346,7.6619361758373525,-3.454634432912267,10.435479982786328,5.18110466272123,g
-2.9843888253412962,21.016152181462516,0.16446213147115452,-1.0534497639310845,6.449204870767675,-5.767698818372017,8.319054541623757,3.30573357018015,g
-2.5530281531986616,19.059998107895836,-0.3584784558467226,-1.3164993008418038,4.8674628703880005,-8.766363472432177,5.698098559429506,1.6138117690101423,g
-1.1049254735929082,17.637377546703778,-0.20529739617254705,-0.7416101968552136,3.350122253958525,-11.790881953327524,3.28284312219973,0.7633755909373049,g
0.7762420364688196,16.700646425148385,0.2676527939260687,0.2637467793841511,2.0655398802042386,-14.997999112620601,0.963697549079771,0.4920312603734735,g
1.968394429768565,15.657116695666238,0.18734210436667792,0.7336720000633846,0.9750711467615754,-19.08021417761956,-1.9753801755898066,-0.12014786092522503,g
1.6608363673335205,13.696195146536514,-1.1194789337220432,-0.05187368952673577,-0.4275204986137663,-19.223467026775452,-6.093398618540695,-1.8144411207920341,g
0.011238480543044193,10.533812988255104,-3.473242478271561,-1.920337511233577,-2.7488300698399057,-20.155636208080296,-11.087107282028736,-4.449241925660961,g
-1.9611595779111746,6.959161816521342,-5.843232339346498,-3.8801650789270923,-5.7271431026000865,-25.377061823104114,-15.74834104135007,-7.017687116870962,g
-3.172415031253282,4.304495242953567,-7.094837267621116,-4.865599281865224,-8.164794796294828,-28.25034428490816,-18.696282367706992,-8.382367515578354,g
-3.2793693118039373,3.2621066000669616,-6.849112231005594,-4.526749452955909,-9.129813636487647,-28.16120951581458,-19.296577010932957,-8.117785330413014,g
-2.802236436434447,3.4866014205004574,-5.658567607176697,-3.402234305090764,-8.729654173460094,-25.630179222396226,-17.952289741960765,-6.752082640263819,g
-2.503142565854392,4.342472933123628,-4.3843667277852285,-2.362717820510025,-7.463871741325721,-21.65388721838737,-15.552258249411892,-5.2326528583235845,g
-2.637722574162863,5.593834011420704,-3.441761593203618,-1.85764930750523,-5.48274527578756,-16.85511035927354,-12.68618888626301,-4.13463135368958,g
-2.770741957134928,7.213229433258441,-2.6052113492375697,-1.6406194251819315,-2.947695956059975,-11.216236310507412,-9.37075164958161,-3.3238036684372623,g
-2.2821057937704943,8.952163315983096,-1.4358590629434527,-1.175964992671069,-0.5126373098477028,-4.52856147950722,-5.417256911842077,-2.313841404760395,g
-1.058894642685884,10.40451828937693,0.13454025327968502,-0.3010419533707493,1.2186646487885906,-2.2537679498502254,-0.9754954188053336,-0.915911069042094,g
0.26777576859781027,11.23118914016699,1.567408401292749,0.49316611387560894,2.3556509645930865,-0.02151188741556993,3.256184991237775,0.43778196153036203,g
0.756119927375176,11.10519176049746,2.0312759714968007,0.42717856011247457,3.2605646329036495,5.917581641307761,6.316363704311568,0.9722647933907729,g
-0.12494780890683117,9.74055332821588,1.0418237276440885,-0.8976179678830934,3.7525370077182707,9.628044110832478,7.536252524601869,0.1760207893398231,g
-2.1222631703622703,7.255760227097804,-1.123884677207447,-3.147423768723379,3.367166152970077,11.124266003903493,6.914462270855026,-1.8164103395289117,g
-4.484790707032569,4.238398088316993,-3.6644978884669457,-5.537640799684384,2.1135486591616037,11.028272343228219,4.969325921141194,-4.393841422978771,g
-6.610157822374132,1.1248794009996417,-5.943339362499257,-7.466690795375245,0.3094864804531664,9.904880548877694,2.2012550506624216,-6.999175364827946,g
-8.440454349026597,-2.268790313735183,-7.936579323415716,-8.912721870073904,-2.1191118343201887,7.833127656371836,-1.2844973169386038,-9.500963920680515,g
-10.281015669379483,-6.254553525767492,-10.01037458799772,-10.258763270165035,-5.430627186088881,4.613819200530351,-5.605909033251011,-12.062518199989539,g
-12.28407601763134,-10.478080399769482,-12.32755969972314,-11.753170486025674,-9.202930030565922,0.34139490238239034,-7.14074479168174,-14.67198834471445,g
-14.130395948886695,-13.98554092645825,-14.524307300157284,-13.133037685679108,-12.371339517492054,-4.277224178318377,-8.733971287130927,-16.83394335258142,g
-15.224378251353983,-16.024106503406962,-15.947601247880325,-13.777908885827136,-14.225412462507228,-8.184568783871844,-12.828799414863036,-17.772198168926632,g
-15.234154459482511,-16.53326612711424,-16.207836207186983,-13.275394869403863,-14.855692368379351,-10.59565351955359,-15.395423136205613,-17.007085177958068,g
-14.479563258275267,-16.029460712782946,-15.576489735225394,-11.88263823253709,-14.664147116894304,-11.462578598077574,-16.466419416822113,-14.797777028555979,g
-13.772818867975374,-15.36802593698375,-14.8838274002886,-10.423329934955467,-14.084782832763716,-11.383297003882618,-16.593860210844074,-12.025112126943482,g
-14.585536751247195,-16.529341216773624,-15.847743328092804,-9.783142308621436,-14.253690058348315,-10.368962295696594,-15.793464829116616,-7.801770079475858,g
-15.599329352541668,-17.955426737545228,-17.093171489718774,-10.341421498804031,-15.02707774051843,-8.995671320440195,-14.589937635406404,-6.469644689139902,g
-16.40677091656844,-18.724567046872544,-18.08702803656254,-10.961389615771406,-14.89904845980772,-6.443729492974043,-12.47062183631905,-5.381412861264983,g
-16.40677091656844,-18.724567046872547,-18.087028036562536,-10.961389615771406,-14.89904845980772,-6.443729492974043,-12.47062183631905,-5.381412861264984,g
-17.266087684848905,-18.79321426682347,-18.955864097689023,-11.857625871077426,-13.587734187163012,-3.0385001966743124,-13.32492250988273,-4.896299224557157,g
-15.57769868276336,-19.279457408573016,-16.88566305036237,-10.413740465062801,-12.520600626572744,0.1717429983491801,-14.643941351341065,-5.859357725720925,g
-14.484101612044222,-21.259622887642955,-15.429289044424001,-9.595349996267169,-13.471336332373818,2.1967405762158783,-13.898455199725408,-5.30674718643852,g
-14.08525082225268,-24.603643397359782,-14.791434087116992,-9.564434200624707,-16.741493162195574,2.894270951841724,-14.443872220919843,-5.943696681077511,g
-13.984452251976517,-28.08421276068494,-14.628455949817269,-9.983306574818577,-21.02224920222079,3.0346830454303664,-15.374479922802873,-7.296077044612083,g
-16.771262260578865,-30.30560374764537,-17.360598198727963,-10.232075983118945,-24.573294019388825,3.6216906870179555,-15.669480789870002,-8.602375854040705,g
-17.219763032194482,-30.43449167367438,-17.92682581851503,-11.59705189170624,-26.140454194769926,5.102711038751586,-14.918651175629625,-11.750910964935121,g
-15.574576134247703,-28.502842522538636,-16.45971807215491,-11.108528161767847,-25.336477999804952,7.123938732205653,-13.453135994401075,-13.40719786356242,g
-12.62712724061927,-25.369779238710755,-13.650674392233768,-9.296013358729212,-22.88815845471031,8.974103331176057,-11.866511170159477,-13.926003279125007,g
-8.975378588678193,-22.12263274127322,-10.070641009802836,-6.418187971873823,-20.219479507373855,10.27882464276513,-10.393899969704606,-13.34702528580084,g
-4.7017774647174715,-19.15847949525344,-5.79659120203271,-2.3152287669295264,-18.069542218100672,11.297240297307487,-8.70232139279523,-11.248737754862574,g
-3.1436433897002987,-16.005519881249697,-4.321838146396316,-0.21161481282923952,-15.651950940815777,12.535586848056314,-6.296160008099942,-7.218001824332495,g
-2.0864003608042534,-12.291738818255151,-3.063878891742079,1.8512975209627551,-11.7749231813873,14.069695718628603,-3.164258852249757,-5.048686880613246,g
-1.9777944712781554,-8.63923311724222,-2.5078040519619202,3.2667245678806993,-6.616388077177595,15.298848166857905,0.00013137707636126094,-2.706493436691943,g
-2.9404320802899138,-6.2409558600678015,-2.893301404107663,3.7295008127865943,-1.724225282150904,15.423568114636605,2.2835555709580264,-0.6672534986430636,g
-1.4282729341975458,-5.712593688246671,-0.9206111354100109,3.415908206123892,1.6430752765365466,14.173550731581667,3.2724107386231913,0.9554398293236297,g
-1.690461165012053,-6.711210991458875,-0.6099265691237539,4.559254105190303,3.493211979681381,12.060541003089781,3.2888436314080174,4.810154996401171,g
-3.1101017031983855,-8.531187052042869,-1.3422130651492437,4.653906122035252,4.488385316558714,9.9450332203707,2.9629224482369487,7.87164743193688,g
-5.176981688469063,-10.660981553299544,-2.6728753836386843,4.09291765651299,5.14139898648719,8.364866904478475,2.630082919705841,10.25766410969363,g
-7.716229322031316,-12.839293506798473,-4.536490408321368,2.8032246619550043,5.725909385285469,7.2101077644147775,2.1067678024861283,11.618588990345,g
-10.685178482730182,-15.033875308529883,-7.0395737440641595,0.5407896975044636,6.20170418489086,5.948639471213647,0.9435129401687705,11.424820519762363,g
-13.811489388359027,-17.429772467854416,-10.08183005129296,-2.6232765777844076,5.925169438947057,4.1601959998215055,-1.1336572679658974,9.470059261862925,g
-16.468620212343723,-20.062981916049115,-13.134088581943487,-6.107974061086793,4.086523044075365,1.9393201660544495,-3.940353795732647,6.1326065870730755,g
-17.944668366207985,-22.396239494538683,-15.403487417648,-9.098981533289114,0.8158520632802706,-0.15542573157923104,-6.908882788562804,2.19013940551432,g
-17.889971767715437,-23.62339525264418,-16.314959407263157,-11.046833724467179,-2.666278079674046,-1.5598442173905789,-9.47181465519005,-1.6380216998429042,g
-16.555233044294205,-23.502810272096177,-15.898518138032198,-11.968328689188022,-5.346417345235119,-2.151881697509514,-11.436550600115252,-5.049673781407113,g
-14.613579328919963,-22.55815476099064,-14.704368113922385,-12.33377954653903,-7.359174180049405,-2.270088842396456,-13.004693905378662,-8.158223118187122,g
-12.72720276232451,-21.351088448067813,-13.340661136650374,-12.672055271846066,-9.293114039078535,-2.3152075377878125,-14.436853545083988,-11.181816043145455,g
-11.215196161058454,-19.914378482203663,-12.09364396245525,-13.213332017041495,-11.14573920404583,-2.3506418484902762,-15.727723994095303,-14.119533907737488,g
-10.033100534801852,-18.0497894707303,-10.90661120408765,-13.797962244684538,-12.480391830231902,-2.050694163518186,-16.585514208466247,-16.6754984964011,g
-8.985391223044948,-15.79481447551677,-9.58206591257574,-14.049141913533031,-13.110533981331631,-0.9634447520869138,-16.638117978035076,-18.439426883705217,g
-7.96339198563313,-13.343478051578682,-7.983582398879131,-13.65264028763805,-12.997881002620506,1.1618357949451465,-15.635406478644205,-19.1371155038289,g
-7.0760303921350385,-10.851307197235414,-6.193031766512081,-12.579698962812913,-11.865677670201446,4.1638432705154305,-13.578406660453066,-18.778772444529984,g
-6.635632717491954,-8.63959456268059,-4.597892019585182,-11.14623077322896,-9.626423527723242,7.458954907771584,-10.792627310309232,-17.645424768660753,g
-6.991136458595237,-7.299255309339047,-3.761550808379974,-9.860356807541681,-6.9618469573698984,10.28201862008368,-7.849366551715342,-16.123602877211077,g
-8.263463834563058,-7.182181146048215,-4.048373918714033,-9.109069579732704,-4.769107886599393,12.094052206374855,-5.263800734014106,-14.45726027771488,g
-10.15658404836105,-7.923653521269179,-5.294395100556079,-8.875877120905411,-3.1193356601383413,12.871851759262555,-3.1733970531960107,-12.57949421617349,g
-12.032524157598171,-8.799139395251522,-6.854188233095458,-8.72747461770265,-1.3720824446446978,13.02832884120103,-1.3187847784559745,-10.194851318860271,g
-13.248407008628803,-9.445771630045526,-7.998516898201548,-8.133856881266514,0.7850850502166062,13.035093249969677,0.6383412617070532,-7.094506685064092,g
-13.516194647357182,-9.964110774464737,-8.333515823908229,-6.896932233042158,3.0471368480724346,13.071075929383188,2.7629281581408227,-3.450783192761835,g
-13.005539395702332,-10.501538767964993,-7.964221287608683,-5.334352714525371,5.137374686128644,12.941128783633662,4.742556919118201,0.1745785373095492,g
-12.112898148845867,-11.11783620972837,-7.339532757886879,-4.0497456845438755,6.993087542262353,12.263422331924396,6.058202250477709,3.1281091837252406,g
-9.820327747542382,-12.967853518777858,-6.602064075212326,-3.514690668857753,8.360652228060069,8.538882302042444,5.394844308646684,5.942724733798409,g
-7.980349503035333,-13.836520979785723,-6.140771083758089,-3.702757581917619,7.342812705955589,5.947541298732455,3.7128011152432108,6.203541990226567,g
-5.384804794090883,-14.037520049492127,-5.101585356690296,-3.543042919365083,5.9605893615527865,3.4135635494894587,1.7173357330110945,6.11427148230275,g
-5.384804794090884,-14.037520049492127,-5.101585356690296,-3.543042919365083,5.9605893615527865,3.413563549489458,1.7173357330110952,6.11427148230275,g
-2.2868729037571085,-13.59802882594396,-3.5303842847424747,-2.9404204059393386,4.680532124381669,1.0936263048823827,-0.35137681881189714,5.6918396429912415,g
0.6852106142266642,-13.092827541413484,-1.9563297279166676,-2.253333167329786,3.1498164745890893,-1.137504926477365,-2.567430914184547,4.711411791271837,g
2.8978549948714107,-12.955939964454624,-1.0018712995218766,-1.983414684772093,0.9514772296439977,-3.4359216101255727,-5.05838551835855,2.9905555558421595,g
4.089901281974758,-13.11529122071155,-0.9512040078712015,-2.3574943683196996,-1.707926368285769,-5.729614526100518,-7.699523430938011,0.6705713708876448,g
4.467226366683815,-13.358209240459729,-1.6214560195880605,-3.135713264590831,-4.410923468129881,-7.672660508040695,-10.059315677517082,-1.7401997380144838,g
4.46577321012589,-13.639691218150741,-2.5418456332575134,-3.785998842940893,-7.002962435512916,-8.796574539486313,-11.586098589853897,-3.5902201687097794,g
4.383220811433786,-13.867882443064591,-3.2649390983117903,-3.8758561961024824,-9.154850200509777,-8.725567066934687,-11.852474082479235,-4.406795283784376,g
4.154910407713368,-13.78934815580244,-3.6422305199701848,-3.3768379423299875,-10.016733399654171,-7.353968987043979,-10.740485400951242,-4.110696844786925,g
3.4294002723133206,-13.367561692630096,-3.9018935299454385,-2.666355831154837,-8.992999110540328,-4.903059005826431,-8.50834340935436,-3.0169049553702836,g
1.8779034481113406,-12.989141990557396,-4.4351730849217414,-2.255513591815469,-6.565252800196523,-1.7948499423485285,-5.669030860896392,-1.6433210124698099,g
-0.4985762777479529,-13.018106202034025,-5.441230891034605,-2.462244928344565,-3.7744438796807005,1.5882940555022589,-2.7150304758829007,-0.44308960724445273,g
-3.2902451848244025,-13.365157715079778,-6.7493476400782955,-3.2477904439987575,-1.1561538851018522,5.059321579315876,0.1020343302427225,0.3906503969802936,g
-5.869287709028853,-13.722404158487697,-7.950532939731214,-4.2841284554889265,1.279458729528077,8.57822331054781,2.7623063567833843,0.9476816313549552,g
-7.697920410930695,-13.957239213252828,-8.650966923544443,-5.168352726635385,3.367288894768646,12.092260391485002,5.307886053654899,1.4610117755894811,g
-8.555362186467551,-13.9937411696684,-8.632678023863948,-5.643071026585168,4.820310698370763,15.423973735883797,7.69909030348858,2.1051642781499256,g
-8.580321547244264,-13.583508367893575,-7.917220596090024,-5.710389697012269,5.771165981463667,18.251618582435572,9.761110715906828,2.84774433830541,g
-8.14209384079186,-12.600290108269656,-6.78334802411042,-5.59355609832814,6.539366684019692,20.15319619280922,11.189076029997238,3.4298533412691805,g
-7.621217761636314,-11.416261373557465,-5.665221397070408,-5.574575253845047,6.890188076931705,20.724179042474976,11.64351653837309,3.497392247183646,g
-7.210217935786657,-10.59221756006655,-4.893687470348114,-5.796578211174458,6.223481885285448,19.762549822265083,10.965783136805786,2.8327281454373767,g
-6.840156079758984,-10.260488230091422,-4.4696376678323375,-6.143190736872474,4.542898646896616,17.399559054327796,9.363442030621357,1.547724617394777,g
-6.27628190652099,-10.155010074082364,-4.100575382002432,-6.278891662222161,2.5574058351411346,14.038376921465485,7.342270014945202,0.07630365967761735,g
-5.323509121066385,-10.172324704654788,-3.4688873970267124,-5.8532351585084115,0.7073894439681437,10.131225288793138,5.394009829698767,-1.0733500790959527,g
-4.011566564157602,-10.51672823417506,-2.488332719323302,-4.761541026032407,-1.2350066739114989,5.974302702174279,3.71015022909247,-1.6492516116159,g
-2.640547179224275,-11.303638718759878,-1.3823296598487302,-3.2829488581798927,-3.4023847315276705,1.655785285461553,2.142260165442021,-1.8221722322858476,g
-1.6456788254856523,-12.393790415054884,-0.5770884333550522,-1.9656517897139767,-5.340030158469275,-2.839396040281294,0.3836083117496706,-2.0557086977440444,g
-1.345757579805308,-13.63759342761277,-0.4506132573235376,-1.3031108802171167,-6.592211968681779,-7.432698263940483,-1.7749636355674405,-2.766646353836956,g
-1.7299006298211288,-14.89817746882953,-1.0414062590395976,-1.420297954105452,-7.20684640952914,-11.768707818080014,-4.240011972188503,-4.0137918726719075,g
-2.443885401724491,-15.770793352923306,-1.9469574464098724,-2.004306630991877,-7.322549455469731,-15.201883564314064,-6.5806900648961975,-5.436775865683982,g
-3.0111473608419956,-15.692098669417211,-2.5721664865019873,-2.5352468988333694,-6.815299951314958,-17.042006054505414,-8.240034533288894,-6.493988330543209,g
-3.13689872222256,-14.507894143027679,-2.5482199152613743,-2.6454511499609388,-5.757134108143655,-16.91849542630593,-8.869927394115855,-6.828466902004543,g
-2.867590660436946,-12.625191722501587,-1.9403270314443113,-2.345786786441547,-4.6778116406860235,-14.976495758338833,-8.50551295823555,-6.485397883160614,g
-2.496997296969999,-10.452592386602053,-1.0997325852676305,-1.9690846492609775,-3.849125516813017,-11.762437711267422,-7.440935366555557,-5.819044836925498,g
-2.313587753720289,-8.009877495123018,-0.3738489600374016,-1.8928132971935796,-2.7587327739773024,-7.928437894142886,-5.975028134884246,-5.179447158581679,g
-2.387838763989248,-5.262187242455499,0.08238103299259922,-2.2539960433756483,-0.8774653374805036,-3.97575688021958,-4.2654729150546675,-4.638596646695816,g
-2.537718664337642,-2.4804101637583287,0.3589172955227542,-2.855547425429859,1.3987682473716325,-0.14980809909063666,-2.329639868749184,-3.9587993187189587,g
-2.466773510848534,0.024025117757583203,0.7467844639861495,-3.30626674318846,3.1811600636455952,3.5062217708971604,-0.0995499093773228,-2.7979047449971555,g
-1.956177803091316,2.2617583664483076,1.581831734184935,-3.265611311968698,4.213030593737517,6.981127717516176,2.49736836719078,-0.9771794619819204,g
-0.9750858988895604,4.366078393878313,3.0244927035882716,-2.6135195104888362,4.988788589361597,10.123844892594523,5.426779067078414,1.3796381012340393,g
0.3451527394958056,6.247428094453213,4.947839439872531,-1.4571615427727278,5.986573500694358,12.62188062902516,8.486465274170193,3.916501238271129,g
1.8145863528288426,7.741353688722846,7.024598910222563,-0.01718489219996817,7.391640312060607,14.15560578216425,11.37571699183632,6.256670615972686,g
3.2648482778730745,8.892201041284832,8.8945305984271,1.5058362641355325,9.349349483680303,14.572650192618728,13.8241118823302,8.19667922727723,g
4.56381123766936,9.753631925593556,10.27494121249353,3.009634010099979,11.729713423207077,13.930266417084642,15.649072255859446,9.747664815974048,g
6.274943280436007,9.57933997908874,11.206250778931905,5.952413438485779,14.171242138673577,10.281902581484513,17.055548181641495,11.99075146885974,g
6.512805514070297,8.407432065774788,10.996705722685608,7.351118185428119,13.145757729062765,7.710539566846999,16.610207462039234,12.508312485633054,g
6.268181517641334,6.9902231692003385,10.52004492723935,8.522232687180523,11.52046201921206,4.813444160202044,15.426859705249365,12.268502347117707,g
6.268181517641334,6.9902231692003385,10.52004492723935,8.522232687180523,11.52046201921206,4.813444160202043,15.426859705249365,12.268502347117707,g
5.557605055958723,5.485255316099612,9.706431547966142,9.263946202278897,9.958742952405343,1.6379915914177228,13.498029227810076,11.077218692573513,g
4.495254585769205,3.7731899797735666,8.418798792939363,9.453889815039188,8.259036094521841,-1.6847995658114054,10.879782837429516,9.048001402444385,g
3.2783083346991746,1.9617844047621815,6.689314467988572,9.12001751794423,6.085910096572811,-4.834407143669342,7.830478155549625,6.632614947256461,g
2.0896329743080018,0.4700617199470118,4.777076670454335,8.397853766533345,3.585258605504385,-7.386953428537351,4.788000476035501,4.414191997748372,g
0.983058417241292,-0.450519833815817,3.0039654272839167,7.417995325114897,0.97091026734128,-9.02823211783398,2.1683920535395105,2.7990708476530473,g
-0.13573681415610733,-0.8933441426621271,1.588200872655864,6.232321300697958,-1.8204012740399835,-9.676667290998868,0.20805657675182215,1.8472213992557465,g
-1.3923412283116066,-0.8965860217603044,0.6195767394640386,4.849459911374818,-4.594702345603608,-9.427815909937593,-1.0034625094884588,1.3687427882355692,g
-2.7685192524198277,-0.23306847459959737,0.11747046456144564,3.3492927249278397,-6.542317433682037,-8.431068930178004,-1.4061622775663898,1.1817336379290602,g
-4.003081097379802,1.2524371739305873,0.09391430811761321,1.9659297984414166,-6.911867753575481,-6.816155379665014,-0.9256167324381399,1.2984844726421567,g
-4.668590676471218,3.411900565367689,0.6036479782301302,1.0341602554500242,-5.676034340048572,-4.6837928868144845,0.48754338738976577,1.8898327634650272,g
-4.418086909012144,6.023278234255469,1.7156956845852318,0.7988613918979539,-3.175332536797892,-2.152716187134599,2.788003922150974,3.0737202089918214,g
-3.2572963243456305,8.87959062499137,3.3464206353400443,1.220911685043708,0.36478562006613674,0.5398745072152884,5.744627453186898,4.712521980100628,g
-1.6254068030574096,11.44801987183988,5.098366500078153,1.9521832069190244,4.418716170856953,2.9732122759802406,8.881688764552239,6.393612674651413,g
-0.17235318646263917,12.843660088550175,6.366089458208437,2.5357898972753103,7.779652165654069,4.650066386465589,11.588498554135345,7.630981391252691,g
0.6363399543983081,12.550452769354148,6.712225845459274,2.7039697516548244,9.419212098258408,5.2559113757996965,13.409724375950386,8.155909033866129,g
0.7889476193617717,11.011850208100329,6.1685671415667205,2.553682658610037,9.606355288596047,4.843963115548232,14.27920941713983,8.080289505361744,g
0.6566188175642826,9.216846498459017,5.16644817168486,2.4597464675232352,9.544924825266229,3.762305402964416,14.459277498552234,7.798228196044081,g
0.6397625514471563,7.832350205763179,4.187358077589858,2.780930522489174,9.984621486330822,2.4011380231897492,14.255585173940043,7.699148705273356,g
0.8144472108173331,6.9372519863118045,3.452238704557775,3.58218166052851,10.710587724183231,0.9934331590083797,13.797525420814534,7.926255354382002,g
0.8598037326664338,6.335378479618032,2.8524478944783764,4.598804050048977,11.201572673000465,-0.3963222084955561,13.049978002689324,8.371271035180182,g
0.32985725722996867,5.772039390072587,2.1274078495002713,5.480099408044329,11.105878138156253,-1.7350674914163455,11.980434642653353,8.883323613079407,g
-0.9386549927054559,5.04874050553825,1.1766317420479149,6.1087883235909475,10.172425289330617,-2.8602841417649953,10.726373856295515,9.485008607060351,g
-2.6165300210907345,4.373292246638446,0.28048881070229703,6.711083125441687,8.516292492439792,-3.438447510361455,9.642205449929808,10.389842272357146,g
-4.063819447350307,4.515858518098311,-0.023053455261578915,7.644009280175406,7.073346765606504,-3.141038922313487,9.143053337392464,11.787551570437108,g
-4.767375486927123,6.155587584160648,0.6160425093326317,9.03589177974435,7.0398847770360105,-1.9512722744890898,9.39656216905992,13.570612000733476,g
-4.660492665085616,9.007734669819147,2.005104126595132,10.602438378898102,8.558898684578546,-0.30666537328394383,10.133765053363403,15.261110032088158,g
-4.055529901627347,11.941454078325966,3.5323100243538486,11.814680279983294,10.51143286210543,1.1381574607561924,10.836483441954911,16.261353941759854,g
-3.295245776421333,14.014598661750895,4.640141298372803,12.271833629457898,11.83349839964252,1.9535574415676695,11.171569137114261,16.25667284911306,g
-2.4948130808586897,15.097061580954863,5.144344216667092,11.932999217156322,12.462256281798824,2.1514131402621333,11.218444414555945,15.40853900666617,g
-1.6201330668093998,15.503550111846668,5.1274066622515155,10.995552737669135,12.743351295502361,1.9743364658444402,11.244852891750883,14.133986399488384,g
-0.7691960332950225,15.453658214060415,4.628949550309706,9.564039659817437,12.595690744533432,1.50773069051099,11.297954932129564,12.670789915716206,g
-0.2997822310682555,15.019316452669205,3.5035869414157,7.477687631747571,11.743931949187656,0.5168784813896309,11.058453658442213,10.862214971627942,g
-0.6076323140919003,14.203183252861018,1.5704248608548006,4.5109697816832846,10.246828040925198,-1.3486944737848696,10.090922752081847,8.388043495919957,g
-1.7347908655682152,12.854083877223895,-1.0972997067479136,0.7651641540846272,8.267144627949145,-4.183395888344553,8.241772086751029,5.2203607849448055,g
-3.203491025845223,10.814486054625174,-4.006441624605481,-3.165393292822138,5.7394307449539586,-7.6167205565693035,5.842680453252109,1.8502960410610236,g
-4.3020783782740954,8.350672483065633,-6.41706791889637,-6.478726769505393,2.782767436493614,-10.972511405680939,3.537320229448704,-0.9590751543559767,g
-4.6274699664713905,6.124371329938546,-7.815101525479436,-8.685691417742705,0.03460166914833973,-13.704996001359143,1.8230949355958905,-2.697711162614243,g
-4.407510438322096,4.488058727805249,-8.294138269270592,-9.897893617770253,-2.026129949050998,-15.745448692101158,0.6682041999178845,-3.4531083540721,g
-4.287325858278898,3.0752158499683153,-8.426641527646506,-10.614944812551292,-3.7763871500368493,-17.423865653986898,-0.4164819320364378,-3.7652830673490127,g
-4.744729765121411,1.3578532191247024,-8.68628595113805,-11.196191604724717,-5.840864032448057,-19.023025141496824,-1.8591348968735808,-4.109743859921021,g
-5.637269245566634,-0.6136755663824299,-8.970196751055983,-11.471828891453258,-7.994410265014648,-20.388521023550652,-3.5332466208963424,-4.447853473468453,g
-6.253743761170699,-2.271133562791165,-8.653550015893037,-10.8058876231955,-9.264476891860994,-20.93830589004819,-4.747990711492629,-4.21378349452108,g
-3.958561167376638,-2.6614671286195213,-3.9001835493475467,-4.4801386817711215,-6.920982994562456,-17.23703787496246,-2.949683730629901,0.31642116412422927,g
-1.0691273925101596,-0.8695215198210908,0.5149408586025348,-1.9633048173513088,-3.2302917264197304,-12.74936791744328,0.30184080850613315,4.613491074429506,g
2.049729030961212,2.1027723513742296,2.2498237104696335,0.12073514403550009,1.8959751578007886,-7.134081993428896,4.360442686003154,5.796141113274034,g
2.0497290309612124,2.1027723513742296,2.2498237104696335,0.12073514403550031,1.8959751578007886,-7.134081993428896,4.360442686003152,5.796141113274034,g
4.623177158403294,5.495444048284282,3.266144874037034,1.5169609537926247,3.448873893074726,-1.1814797349371986,5.0308329463249,6.413068312960431,g
6.372989014957634,8.533874591734483,3.725107640391067,2.388567726023135,4.5965255914897725,4.493150804138298,5.35064062766814,6.629577328939538,g
7.611663519231629,11.154796625225512,7.041651589999695,3.093622269055146,9.02517213939225,9.701394656003455,8.19925209667165,6.79303094392417,g
8.90274510878162,13.85178164516652,10.175204842263383,6.480789454438714,13.474813799864247,14.592521886160629,10.827835918407205,9.607609377239928,g
10.545006276229284,16.805796995457918,13.278698564919967,9.486622512246257,18.366587626020454,19.296076669899744,13.44245360932994,12.08474811379365,g
12.264581194118794,19.500710182908676,15.988441686856783,11.831475089446414,23.032815527684328,23.59912167707885,15.736989352608536,13.87746681627399,g
13.32077016454052,21.17023725540677,17.570580240144373,12.906548818961653,26.410613994394435,26.89107474035863,16.963743995553042,14.306263455724949,g
12.940299257892235,21.250055192148768,17.301354819449543,12.107573389942155,27.86700437761876,28.40140571455631,16.32870180969626,12.72158664156633,g
10.809196948179453,19.41832511858363,14.854915816433822,12.126538167363464,27.09251488588044,27.622638375430636,13.435911798296019,8.912830327631221,g
7.317684289225056,15.700394414115099,13.7323368539334,11.381120948391285,23.904542340764046,24.703890098585447,8.55769517639122,6.933935711116445,g
3.368613154344049,10.715197223505125,12.023047451451111,10.127206229581883,22.80537783444836,20.507619614364618,5.9105236171581135,4.356090050028588,g
-0.1602276141870224,5.412830355733604,10.09773661515952,8.61692329648027,20.54542688338676,16.179010992766745,2.9418057365317285,1.4912933709102194,g
-2.9100325004442027,0.3181063493042199,5.212662055411774,6.9947935939571,14.019482029881669,12.516245402765204,-2.558130619014131,-1.4820881881549386,g
-5.094565559745889,-4.687275072106928,0.8264208926690948,2.7018332078741887,7.233729144036891,9.680872165455094,-7.342620347614161,-6.9565793132452765,g
-7.099626689816061,-9.671172842984854,-3.1815763109576976,-1.187840636924792,0.21136755732147988,7.464545527498961,-11.457967676522264,-11.872092182689574,g
-9.02905670935421,-14.11267661304762,-6.6782056279965145,-4.55732048933173,-6.118283722945691,5.769149684390525,-14.71800199722945,-15.921523170015783,g
-10.607199900051633,-17.343383828853415,-9.281060269086723,-7.04211999647999,-10.521691340698055,4.8154017058965595,-16.67203073790231,-18.50637905520552,g
-11.468316270363307,-19.234199380706368,-10.66433297640541,-8.331002096813837,-12.653879913685827,4.956858887250969,-16.939519254306003,-19.13993460022405,g
-11.517628962947365,-20.1264168897086,-10.807493631692589,-8.473373105824999,-13.003268552102814,6.344254548134115,-15.522312190690792,-17.847980849544673,g
-11.041367091297825,-20.316037595571366,-10.005012514729657,-7.889387277920335,-11.88284621915221,8.729737229498683,-12.829637385384538,-15.196545296551212,g
-10.490716594383468,-19.92522958441408,-8.682554997516096,-7.063941570396108,-9.164906912871311,11.550211789038102,-9.456602656800971,-11.926081960856934,g
-10.117029636904459,-19.044988357310192,-7.125028234019304,-6.180981746730353,-4.868785961603413,14.252879796864525,-5.8807021243567235,-8.491852766321195,g
-9.7418556911226,-17.59865078521268,-5.278561550938685,-5.0055581362946935,0.707416768669086,16.63301762293728,-2.2524792507369353,-4.870209416050907,g
-8.859351690097338,-15.214164068110733,-2.835448632399859,-3.129993799037154,7.377514996273592,18.867178307026055,1.538949995608864,-0.7959165100301459,g
-7.0160735358130095,-11.671129298590834,0.39746293844139374,-0.4059076961734972,11.007510486379786,21.16277459694195,5.510935449392637,3.7333917542054893,g
-4.165795645487732,-7.44517209542668,4.194078042426342,2.7935783629385265,14.005574514043682,23.361376597345895,9.256946223282334,8.104540643867765,g
-0.7015973900645361,-3.4369483085229837,8.006051670817119,5.725513542145382,19.24404354603145,24.9240126071424,12.023562678865432,11.239729543705256,g
2.8476027687357393,-0.15838267114546092,11.359681016828475,7.7475063155924975,21.92511675280059,25.32908957381608,13.177265740828593,12.194649390393689,g
6.187844457600188,2.5146891353600487,14.14942645559358,8.743800765492372,22.735721096142463,24.503327404899828,12.635267011061412,10.75514933025803,g
9.417329212872385,4.876804205711474,16.618182825123313,9.191338926035204,22.670806764952907,22.93656165629239,10.918399549436735,7.591313672432586,g
12.88644895202926,7.105099811014897,19.13716868585599,9.838091091011696,22.111173097491506,21.44511493366355,8.86759847329522,3.892888123920919,g
2.850365123564056,-0.654807657309433,-3.5449867334598792,-1.0798183785514353,-11.736995431993524,-29.39859248988638,-10.846545021799347,-2.5940371820361583,b
1.2407055375503926,1.1291797057741346,-4.070356951650065,-1.6835787481459277,-10.675705458342122,-26.536311470649924,-8.413074868009115,-0.8792500454738466,b
0.5691566112639513,3.9183537545336593,-3.788097349104875,-1.6743306255269197,-8.22561261503608,-22.089941541186157,-5.029084414182117,0.6819874710743168,b
0.6239443398835272,6.811129273897867,-3.0890279836986307,-1.491980749903906,-5.404052949137791,-16.886690068983373,-1.5261528043022825,1.4491497209679174,b
1.3087510908378737,9.247563025979128,-2.1125304770665787,-1.3462647351564019,-3.2440078641242485,-11.644026420197072,1.4081789826459108,1.1195276856696328,b
2.7679705142137063,11.611588275657903,-0.598891228939018,-1.0156452521680364,-1.5740744441638597,-6.6674841614115055,3.6197431908476716,-0.0236769424427097,b
5.130239394950994,14.625438851846107,1.7170951712947164,-0.13541300804734774,0.5909295736450211,-2.060125274341528,5.317268145650308,-1.39509276777576,b
8.108364015691759,18.27639183149596,4.575534040099379,1.2946000947306275,3.4933130802388725,1.8150057308200818,6.546436102924339,-2.682201835849687,b
10.910472229240394,21.646826507649315,7.134199133963629,2.7128382410660743,6.094929522711698,4.170107919038061,6.914497567213699,-4.138096180916955,b
12.665869059630605,23.69341285393066,8.512119151695067,3.3821681644165245,7.0842548361064654,4.169670530722168,5.884644642821733,-6.255197807833885,b
13.073593532806878,23.959805974618806,8.477352758241956,3.0710928534077886,5.901696631766922,1.5595741667409406,3.3609388530729376,-9.087263932020356,b
12.709432494105483,22.76693727325351,7.705092833852767,2.401423162763129,2.930391127673185,-2.9814634059705503,0.018386447269293525,-11.868770416697817,b
12.646925660536402,21.113499770255114,7.3583861640265225,2.463702959224408,-0.5841537333855706,-8.10490318552051,-2.948305775453764,-13.363092316213733,b
13.607878416479664,20.217172474306796,8.220983177340994,3.9357776688131936,-2.8306767889290465,-12.559890485136638,-4.545787025765234,-12.739299541956688,b
15.305335712440712,20.580470911726632,10.003670514547538,6.423354754999653,-2.584798781897121,-15.92786189717159,-4.673508907026661,-10.27932396766495,b
16.566001408739822,21.38347445247546,11.453657771615063,8.621566158288829,-0.4964566525344337,-18.71132240203869,-4.193514960862143,-7.287543657709577,b
16.21091923851045,21.185953218064466,11.308646055247639,9.23848303358288,1.3402200836128944,-21.6405356823057,-4.205759324053757,-5.193933622008127,b
14.01549715700267,19.396652034826257,9.344294392117902,7.973353609570315,1.4885436009126862,-24.774577353179016,-5.079009917869056,-4.526843716631203,b
10.96311179989345,16.84133690648248,6.605196854292752,5.769336887910274,0.4649462885211805,-27.210095359032277,-6.096724965507638,-4.584075650212633,b
8.582738069298513,14.901984488101684,4.643552638771248,4.13939137159738,-0.1915701204957653,-27.665777827634223,-6.0406344213948575,-4.07017241788611,b
7.905314614120525,14.42327924979674,4.444810136490519,4.097363796179854,0.486686610019893,-25.43510538481427,-4.180566508892417,-2.1714102208058903,b
8.830009886936548,15.403835115150809,5.848029106635531,5.497237250807867,2.4842720671799214,-20.95961294991053,-0.8598364495532529,0.7800441338321356,b
10.307373039318179,17.176767858182693,7.747430888465994,7.216308107275348,5.165168304512258,-15.665103422464162,2.6851066588138153,3.5103783317619786,b
11.124576875638974,18.62639871870659,8.834098683892801,7.974239792479787,7.3679247694034355,-11.231711118718717,5.051431846614383,4.650263328906504,b
10.701669021918798,18.7013003304727,8.400119273619216,7.165743594465482,7.697882892997285,-8.765319113789262,5.457284363892312,3.5841140654306907,b
9.3730136498454,17.207681056658085,6.709968001727274,5.149915199801823,5.604731911890275,-8.362745620081665,4.1181051224211505,0.7427758844617394,b
8.031917158946065,15.001187485335421,4.689912885919269,2.875992334273131,2.0843147269657853,-9.319996118558304,1.968592953805245,-2.7941729519578584,b
7.466970112941631,13.161473359218386,3.1977189625162312,1.193851771387213,-1.2319459505379473,-10.783588724242097,-0.06721734744200822,-6.0487650150879855,b
7.887282201067199,12.108160810664296,2.4825454349439076,0.36121600656002323,-3.5611495055109943,-12.324026143030679,-1.684142393118273,-8.699341823016983,b
8.912607686334029,11.621398588970225,2.207189371874,0.03655532227194199,-5.182023741382927,-14.04620310092975,-3.235478971878576,-11.086032467145102,b
