Fz,FC1,FC2,C3,Cz,C4,CPz,Pz,Inst
11.732725545116988,29.43906050107566,10.831661100438387,9.457041584707529,10.002586839878294,-8.021148119005437,7.8760673279891575,7.366458839456399,g
12.638402547157735,30.98953257479858,11.682489472725134,9.773921993824194,11.334954247858501,-8.864730934042047,7.349527682770504,6.986270838357095,g
12.078957688485252,30.377199196184073,10.69873677909627,8.45228525706847,10.256165503170935,-11.362505117547082,4.9319237652438765,4.681718809363376,g
10.297425748211406,28.013737101924118,8.22825694488112,5.757164755506838,6.765172428205811,-15.041982351176006,0.9825383918622066,0.8252190895926622,g
7.74191115601368,24.897544830051665,4.894088544693452,2.2419517536313016,2.082650976501087,-19.22890068601265,-3.705577180593751,-0.7536664727471651,g
4.7463607332581335,21.73138176890154,1.1491858804960118,-1.5997601440137872,-2.348562726925291,-23.4077234193815,-8.342604377451684,-2.4886128885790475,g
1.4668077676031253,18.55556697890881,-2.849711967475693,-5.4737705955238045,-6.029682639199194,-27.3169757662741,-12.433850586118247,-6.948561124112446,g
-1.928186730309879,15.240071189727747,-6.986196140821145,-9.155597471070225,-9.342053960309864,-30.764787901186008,-15.734457098596973,-10.756555575801972,g
-5.081970418179263,11.968309760483644,-10.904667616939571,-12.307931583639366,-12.625413698457175,-33.4544130854256,-18.049425521758423,-13.602718827149909,g
-7.51255045153474,9.097910477372164,-14.035077463913115,-14.48302830737482,-15.729495474491603,-35.041795963657464,-19.17075889435507,-15.127985766982087,g
-8.855578306759547,6.8894462968164305,-15.862037388164234,-15.319307912185627,-18.204279516280035,-35.33165794255714,-18.98744842956864,-15.094710758818923,g
-9.041365529599549,5.603690481873364,-16.151323842783754,-14.729182102012265,-19.366975611622756,-34.379601547320405,-17.5726830824987,-13.558529509041875,g
-8.247812533531043,5.580425161238781,-14.977517292917923,-12.897743878544668,-18.31911403260596,-32.42487117246602,-15.135023116503083,-10.832692290372524,g
-6.7021739150937325,6.911760104993536,-12.608242515015519,-10.117137679023617,-14.587566400062155,-29.760548388593698,-11.923628668635104,-7.298191668131734,g
-4.5358766526203995,9.18530343079685,-9.364851086246423,-6.638986670850433,-8.942180192149088,-26.656953465439578,-8.203724806673403,-6.3855930058966575,g
-1.8248650951839274,11.79124051837292,-5.553835107480921,-2.6835934127297745,-3.13614727918877,-23.371160088828905,-4.297706390543731,-5.2548420483040825,g
1.2475773940205679,14.363403955365218,-1.5057602170151196,1.4419038948871457,1.3882321033710585,-20.20594494046272,-0.615366160642013,-1.2361738407687297,g
4.30968681207551,16.760455514764523,2.3642730079624097,5.296181044599266,4.353081569402834,-17.52528940397307,2.3908810564437326,2.137493656853335,g
6.941246259557488,18.861986392141006,5.6346362262401755,8.439433180402375,6.335758049726351,-15.642183921292508,4.368220371335234,4.443775474765065,g
8.938149864593992,20.690720541346934,8.09929624101552,10.658894813608919,8.104776979652014,-14.637940433607426,5.237311415826899,5.466819291665304,g
10.441719700391767,22.556708899646623,9.899573362126905,12.06919720052376,10.26511687838877,-14.309398062978499,5.236545088048415,5.3041807859839025,g
11.782465087094655,24.695952871840404,11.368764188785255,12.975704605231218,12.896200740479657,-14.339590176320948,4.7393985598101835,4.315471986051245,g
13.1608697148158,26.798841528544166,12.712497370563188,13.608304656236763,15.180438982858917,-14.529780047064028,3.9816256920914115,2.9267571960794396,g
14.427395692070807,28.196165976557165,13.82411948813586,13.939405910393083,15.818019435353293,-14.865561364447917,2.9546450476999,1.4258684664434078,g
15.113649109956091,28.47680747961425,14.35329085967312,13.709083465159647,14.222970670927452,-15.405592882644044,1.5380435954258858,-0.11070262275688884,g
14.668121462537727,27.639185243219742,13.903890909665908,12.613213534664553,11.100548539646274,-16.16061797098586,-0.3074170180907103,-1.7437547981779826,g
12.744611745015309,25.710884612265055,12.226407940849127,10.516411457907353,7.62138234362057,-17.052206365599968,-2.4598145311616677,-3.5377695236252378,g
5.075776519048783,18.587303312746005,5.696065623506238,4.173744743073785,1.3040244387969602,-18.36833261320521,-6.4843615384544915,-7.162597950570506,g
0.4535604892350843,14.160627162645614,1.80806008371637,0.8499531775417196,-1.4371011347878884,-18.05156080142556,-7.4970115296849595,-8.23642138934889,g
-3.884574159543243,9.917015515486785,-1.7854527884981302,-1.9812837208745324,-3.5665630722323742,-16.568257499279493,-7.30652483141604,-8.164771257088994,g
-3.8845741595432424,9.917015515486785,-1.7854527884981302,-1.9812837208745329,-3.5665630722323742,-16.568257499279493,-7.30652483141604,-8.164771257088995,g
-7.669990187814737,6.101184508920717,-4.862978271710425,-4.1678101882433864,-4.97841509568519,-13.771889903351939,-5.817825282516017,-6.7907053438611396,g
-10.987502301404476,2.76509828011756,-7.510874872369042,-5.870205109990405,-5.802660833065644,-9.837595319496003,-3.306025318193376,-4.502788936582691,g
-14.060040022591597,-0.05273509187306118,-9.925851390585882,-7.392356132349287,-6.1041664027849345,-5.179418426581547,-0.2785566992861531,-2.056005556613723,g
-16.893063408406295,-2.35946349688762,-12.121767351234974,-8.857183828944418,-5.87435208230052,-0.21155574835943725,2.817527525925306,-0.07260207286733636,g
-19.034862147799075,-4.094631466652824,-13.715203769911474,-9.959247336498532,-5.1684481702785625,4.906463369338879,5.851570475485493,1.390100066460854,g
-19.698373491848102,-4.806125535425098,-13.990769689554096,-10.045626124784812,-3.8289211448905776,10.31871788377842,9.023467922292754,2.8373811264607482,g
-18.24517314626008,-3.762941131862658,-12.32239398204299,-8.545673679914298,-1.2220497012778186,16.199204518808692,12.560150352994665,4.866806107164839,g
-14.7037725998095,-0.7271482319340971,-8.70406822771101,-5.456238453030591,3.1519349638724234,22.342485402591766,16.28169752769184,7.564143111127717,g
-9.891982391416274,3.5119014674261457,-3.9266832837782095,-1.4862508272766695,8.67012568445879,28.0122993934987,19.426862841228164,10.240827643452688,g
-4.990625512727005,7.621303919267193,0.8272159218141066,2.3009612070875063,13.673720334043514,32.256419033136744,20.986440088751905,11.78181317319373,g
-0.8658353780456581,10.664101235668207,4.671732139056773,5.110664310137475,16.752149651771344,34.45847077757224,20.33651500095752,11.398110299655688,g
2.3393741846436344,12.440726135880988,7.429211863332282,6.834274881957166,17.691026942004587,34.66932004146663,17.64436253353715,9.189736590119844,g
5.0385275011848805,13.165259672185286,9.476722849934,7.9367628308090605,17.165521784959065,33.47028966182961,13.71110184844162,6.036251345200479,g
7.629056007811791,13.137534517443575,11.222712717570932,8.919773975897193,15.967591796586234,31.52277062891735,9.423477129124663,2.9201486298288373,g
10.006510201222687,12.594632182891624,12.652987634386767,9.818641513616358,14.6498629640529,29.175370448386694,5.283913180597912,0.28472985971160425,g
11.556574166076278,11.500188822073957,13.273303279427529,10.145764722417214,13.374700502072837,26.406537931648224,1.3413397637319098,-2.065100156297548,g
11.591956335646831,9.4711917266487,12.468272995236363,9.29279163678727,11.736068231107925,23.106370063724324,-2.511077544083169,-4.539389996162822,g
9.837921071641377,6.210461627489631,9.989431294226549,7.02520911830006,9.075611031773807,19.44102779789136,-6.155586932422857,-7.242471005005035,g
6.576860348343422,2.037800351644235,6.176499895604736,3.6734786389795104,5.345022221028796,15.974881274765343,-9.09900652357293,-9.765648561732835,g
2.3998271349962828,-2.255281153127635,1.7405940051034108,-0.07946170381897488,1.4202328927684962,13.432390513520849,-10.681129781011633,-11.41188659330354,g
-2.149959644956902,-6.069309853693093,-2.6603380490164463,-3.5897283406031932,-1.722423745034071,12.310305101568702,-10.472821541885303,-11.654926087783641,g
-6.720211678074561,-9.241250988794528,-6.656348024578774,-6.505001271854326,-3.8562278193702126,12.67768247108182,-8.516041760130808,-10.465986768309708,g
-11.017920249134832,-11.649487661863784,-10.066611059550397,-8.729093205460726,-5.2192838423447645,14.29102379743382,-5.213753706628463,-8.247383555748566,g
-14.621646181925422,-12.961802209842464,-12.682545080141976,-10.212234427863965,-5.727745518957778,16.84780796329925,-1.0313713997049008,-5.4678626996497055,g
-16.992321649861886,-12.934402509637914,-14.207349689417935,-10.815243945962116,-4.983893066543243,20.125203252661105,3.6738137299281144,-2.3799368958532154,g
-17.719866574026383,-11.703664187944781,-14.39969326788433,-10.393647343114193,-2.9378592815470443,23.918300588795997,8.576778231840771,0.91349886174684,g
-16.794721573206377,-9.648421192871151,-13.27200191817606,-9.008167954986883,-0.11035942249291084,27.880326349112597,13.220069429021873,4.173696227662462,g
-14.643264126173253,-7.198589876825325,-11.173640299508227,-7.023430850809338,2.758029778927743,31.434948826811883,16.974798690715144,6.876841858231242,g
-11.857860232746415,-4.8697760891094015,-8.666554189123854,-4.953829311840892,4.930697121024508,33.886796065984996,19.20422640171384,8.386638306070914,g
-8.822189931159476,-3.1347275522784557,-6.230480897112129,-3.1600298800258697,5.775848075290543,34.71768693960047,19.549691099882935,8.314337489165585,g
-5.540790456091679,-1.981639653570903,-4.000776874962597,-1.6491601057867857,5.244008436045357,33.87239394492583,18.15349408969821,6.7844197203787004,g
-1.815052176973693,-0.8118531675482487,-1.7807993466049665,-0.14644620355778865,4.26588032312605,31.784333023574437,15.619216309577837,4.402208725163524,g
2.3957065428984454,0.9395499993784892,0.6562590123753139,1.6211664075244065,4.115095639749647,29.09065005304757,12.670200698649928,1.9133751804368955,g
6.746873439224714,3.182046555958057,3.2521748826037786,3.6499438172500485,5.156758915091933,26.2629478991594,9.735282462996564,-0.23777391848382337,g
10.600764928812659,5.325475208304079,5.614315580153355,5.590838520644608,6.524127749244206,23.432463625495593,6.788003404371624,-2.129634106329789,g
13.347841303067899,6.851134742626456,7.2328814204380505,6.927237192615533,7.068491927252536,20.49013738928877,3.5470542782879577,-4.179023093019338,g
14.709174655587512,7.509169654448077,7.761359568774743,7.274830361733024,6.258185733352145,17.344958407605752,-0.1540159401980162,-6.694367982429711,g
14.833549611308431,7.21127515722655,7.200484637503585,6.613007748266284,4.187239175056883,14.177195450320337,-4.095646257410051,-9.520524438707398,g
14.169840460660804,6.145755449553457,5.931832098596758,5.314245591762726,1.3534627410891253,11.543314978420437,-7.6361105014161925,-12.019838513176818,g
13.220207946166337,4.935043998706275,4.5701233335373725,3.9654563317613913,-1.2709286377738376,10.222846835946658,-9.919418101145686,-13.363238273031204,g
12.308643268337061,4.278750980150393,3.654302323374755,3.082085381362299,-2.498881936679833,10.825505974671332,-10.26066748159302,-12.94551958669362,g
11.459863171316563,4.33053818209943,3.3395639020790604,2.851839221410033,-1.827783363404785,13.381116524820712,-8.532986028620506,-10.726055230855085,g
8.860027203999035,4.517389237228793,3.007677503089651,3.088698727149631,1.7690701544846292,21.204657586528207,-1.5455684665113956,-3.702133796542742,g
6.580725793320288,3.727876611104469,2.000069367614256,2.549438093943597,2.533322885009133,24.36962596214087,1.846077933854111,-0.7197143300351545,g
3.8225539426439186,2.268952242633267,0.35532842920509394,1.3977985027229525,2.2513353104036504,26.325566346293005,4.556627359657902,1.3994825010790193,g
3.8225539426439186,2.268952242633267,0.3553284292050941,1.3977985027229523,2.2513353104036495,26.325566346293005,4.556627359657902,1.39948250107902,g
1.27043930629056,0.6079834338063262,-1.2751421335384088,0.19882651483240488,1.493894872455194,27.45331925547905,6.925229929215272,3.062708704385712,g
-0.2243825917752706,-0.2827364425657125,-1.9491269713215993,-0.19903898611768914,1.3774334676702387,28.54463177687207,9.60454713765336,4.909442318921291,g
-0.12592863639140917,0.5641229041613987,-1.0228789252542498,0.7726503302786034,3.1617957878653833,30.1328546140014,12.964999531571317,7.2506276818400055,g
1.4470855109753697,3.216998758123185,1.365186822597856,2.9845550811493724,7.189073399770903,31.983017702368283,16.64858737966114,9.745347791337013,g
3.8128291222177415,6.626702311144575,4.348698201601035,5.672781693428112,12.176657228995783,33.18515565156529,19.651839407084193,11.552956843117647,g
6.213163778143912,9.485026960803127,6.942386528090127,7.958594797787268,16.040191009931057,32.832340539367024,20.953014954207042,11.892138681450202,g
8.327656578764842,11.208804223738596,8.71933960588996,9.439064087099869,17.550445420500417,30.755579057949898,20.22134318062537,10.623789367095045,g
10.40123050343054,12.08897310886672,10.004599771149529,10.389062016922157,17.014260561393684,27.722814782956313,18.02581252657442,8.386529522913346,g
12.870857254466747,12.806084793193056,11.461524083120711,11.40735919916815,15.55100202115556,24.946976863008793,15.373738811538226,6.1291287589425485,g
15.792909533130498,13.9601081278982,13.433341263923216,12.793730580442217,14.143918948019968,23.28414389501794,12.973556659666178,4.40653277443824,g
18.56431723714995,15.717711916453581,15.555548129425778,14.186323519918947,13.23114300247872,22.716773695119223,10.810260703413215,3.0321703379391383,g
20.211420929119864,17.5525929179676,16.93611616788117,14.78067848660288,12.552542555805786,22.494211185973207,8.329718671242386,1.3583505035434909,g
20.043582107220214,18.485512870889075,16.783362541737976,13.950302106817665,11.22257951168889,21.811021494257567,5.049473601799998,-1.08762305954483,g
18.137729981269437,17.912949300172567,14.996324572027367,11.740605791016987,8.447750047226467,20.47547233716763,1.1024419002473,-4.140818921462811,g
15.244092562548897,16.15714036368457,12.219360097114745,8.827759756136954,4.417423165472313,19.012149693288773,-2.7287794848164806,-7.051493702838789,g
12.193370384327551,13.996168661144418,9.3089263152002,6.001651830162746,0.16046177047296198,18.132302400638284,-5.523905829112412,-8.988276454656166,g
9.31050613135059,11.784208744481848,6.701131548936827,3.6251355201161055,-3.5962052484383698,18.080624391519972,-6.843241800148981,-9.596058350256815,g
6.321988893823439,9.298075090716628,4.2433147739590185,1.5135919524421684,-7.006540542201579,18.458384070999852,-6.906784479521019,-9.165888110722104,g
2.809271661833447,6.326344150235508,1.5787227364148806,-0.695694243779063,-10.370095455360516,18.642572021445464,-6.206897371604533,-8.278091666669694,g
-1.1994310457095203,3.0799727469698257,-1.3271014119473439,-3.027784801182344,-13.288301423952191,18.377099411665434,-4.962753417328434,-7.236328175098526,g
-5.011255161304606,0.06650729198744543,-3.981743606181034,-4.967930590704425,-14.905862723677842,18.011793779981154,-2.932335478461032,-5.806287846138096,g
-7.6274141585796205,-2.1328326637561696,-5.625556985817672,-5.769177746587948,-14.696916294944126,18.20616846811592,0.2776001355254184,-3.4918762609608107,g
-8.418212946859878,-3.0159737259226715,-5.755766316116764,-5.038749102502088,-12.741883313866182,19.344879210560894,4.696801990862056,-0.09599893587342372,g
-7.587990071476196,-2.4951130693716577,-4.537321063477207,-3.1250746205173376,-9.57979631195778,21.133631486882386,9.70130441643005,3.914074246392483,g
-6.041494125424126,-1.1766285763992492,-2.7593308327097903,-0.9660967589752378,-6.140629932056568,22.732382819692138,14.202247237877751,7.533805594423669,g
-4.726133469360599,0.03165385772769784,-1.3023571836633603,0.5146787199048702,-3.4592034977540083,23.36683317294619,17.22748914076312,9.76229343746041,g
-3.956946805519201,0.7756364149127335,-0.5132133371264932,1.008209429836293,-1.8997888192837267,22.923674222969595,18.48543679604625,10.185479244400769,g
-3.254052070585286,1.5311188615420899,-0.015470006940903325,0.9586521148744144,-0.7581101122942968,22.010129113253715,18.453669046214888,9.181932127543131,g
-1.7978609624380613,2.9570886565304977,0.9007399640345419,1.1535886274347842,0.9442357974765901,21.43747255261895,17.90476837222929,7.583953543189698,g
0.8876626526519089,5.210200726285679,2.6843583683417243,2.1043902748649805,3.3195343482460027,21.60270050122103,17.279465917448423,6.051480591203452,g
4.553676153715113,7.946553352750827,5.208431847490968,3.6902751365863637,5.564991025449471,22.2730497802621,16.43358130201083,4.664837622754776,g
8.392514028209941,10.647638217900338,7.897532025895449,5.3030960565628265,6.8642866355037295,22.867506436407773,14.90695620635923,3.047179493875505,g
11.573522441960318,12.759624037528749,10.126506642186703,6.340173424736075,6.928843075050675,22.94580578787967,12.418265956295425,0.8582892709655809,g
13.735715410254878,13.863709992733396,11.613743974250472,6.653233465673073,5.857554759668682,22.543324100855124,9.188770795804611,-1.783634666717218,g
15.101921213304317,14.075275451912267,12.570383639472592,6.627900796181358,4.104066569147813,22.14481748090041,5.898843081348535,-4.272916180971031,g
16.179260759131175,14.127678300702087,13.493550433748933,6.863742675684553,2.6376079578838176,22.32243377229339,3.3288858921288,-5.866793801201368,g
17.313555014197647,14.745841920821917,14.741389835531441,7.719691428878001,2.509472825514486,23.29719248812838,1.9200728965443183,-6.14866192332244,g
18.444332671073237,15.970065243450382,16.236301011630456,9.066130885214374,3.9211836820509207,24.76675410370073,1.565910529329844,-5.279758731892047,g
19.203995139524103,17.24559839830856,17.533538335961318,10.397607579342438,5.993960464750509,26.129093385166982,1.7985980840177178,-3.8560426628171895,g
19.212050121132485,18.000108541547466,18.137444407534286,11.175385957691121,7.599635991264357,26.877955811612814,2.199079055846317,-2.4796135839241757,g
18.302442299646344,17.901375056211883,17.762329098439814,11.123880721881921,8.141180740099488,26.826708410180704,2.6615914181473674,-1.3982825253601976,g
16.5548510254252,16.76878247704267,16.396303521241407,10.29672297852206,7.524931187528928,26.043137730560424,3.323496469151722,-0.5009736379266687,g
11.521116316572256,12.002325848263798,11.658514940667194,7.325441050925737,3.8593308299148696,22.693938554607442,5.578331169562927,1.279768657727058,g
8.852568551604582,9.41532734373782,9.021732802015357,5.6657755228277775,2.0461349304405014,20.14933047835446,6.897473671642386,1.959721531055879,g
6.570840076869361,7.199487407980297,6.691330172753655,4.156795488097989,0.765479042546238,17.051887020972718,8.01046132594663,2.2366992351756028,g
6.570840076869359,7.199487407980297,6.691330172753655,4.156795488097989,0.7654790425462377,17.051887020972718,8.01046132594663,2.236699235175603,g
5.0702011651242485,5.401940303907378,4.968746428066663,3.018993483144633,-0.38282914923509165,13.646205674034201,8.77614657263986,2.0978770511792417,g
4.649343586029388,4.2331861083399485,4.1036673156712125,2.476559898790884,-1.7770890515183375,10.405374948445345,9.255337899921846,1.754979887869063,g
5.375064535704274,4.09889543632419,4.231623101556694,2.665849674330081,-3.1091525360658236,7.832830664153091,9.634508924484638,1.5243469620634733,g
7.036184795314024,5.146133056775904,5.286157485472817,3.5579228015368067,-3.7524161275299677,6.182484231157501,10.03594808869218,1.6292924854274786,g
9.257273457975497,7.10520671129216,7.028301995515585,4.979851240665439,-3.5022641326188078,5.36217446042203,10.408877179915647,2.080312938135065,g
11.700378981568225,9.697360449125082,9.207671868760391,6.725988475679905,-2.547164250424931,5.11260121755439,10.623561704078533,2.745178653892946,g
14.190379558425041,12.9018552455666,11.680059730476763,8.653402667024107,-0.966671919583795,5.2652071344042195,10.641126761550147,3.5281026525475503,g
16.67108526599613,16.67154345270728,14.356831939801276,10.666359037435658,1.2274963231013036,5.831042726217633,10.545097750662483,4.441175089921218,g
19.057215873376915,20.658896388841022,17.074806846900348,12.60905479007097,3.6640130665394217,6.878765102285911,10.413175398896213,5.477149317602343,g
21.11846998725176,24.401299218639714,19.532388338265857,14.17968864820432,5.709176375000443,8.337858733300381,10.19054105174737,6.43818932912856,g
22.475508650629514,27.535324666008286,21.31299538519858,14.960149682641347,6.962071867674974,9.87329648871805,9.676848301401172,6.923381019127836,g
22.708393404366973,29.66316536188367,21.962224606763126,14.561824999637022,7.261071323808823,10.926784438098887,8.609247864350966,6.495568034699493,g
21.537023532161044,30.311903539541127,21.13887388687695,12.809213051369088,6.314448456633764,10.952413764829878,6.7988500830666,4.892386474548026,g
18.997108807800366,29.336571032002205,18.817228107546335,9.8598596242112,3.869081024554525,9.728933943119861,4.279168833003217,2.1576524991455663,g
15.508756561593202,27.204829436219125,15.388249996102427,6.19101150290168,0.2985199448525366,7.507951174301441,1.3665915952994963,-1.356698559484856,g
11.779396091855867,24.625239087916214,11.541010474384668,2.4573249941871156,-3.4695013418140084,4.864536472514559,-1.4511580123160397,-5.118073210043728,g
8.582328257827925,22.031312590492696,8.012162556801908,-0.7052744256547534,-6.7396605179603615,2.3843094153351623,-3.7220484337741055,-8.606732055509308,g
6.509336061150293,19.63978098372874,5.3765343078144,-2.84304884476438,-9.366232431420283,0.4264035629046303,-5.160706772661979,-11.453727361057185,g
5.7857753927782,17.771041106844418,3.928943691005504,-3.7693689542297877,-11.246121927087438,-0.9471429005283015,-5.655134836618737,-13.451323112426701,g
6.221041354497173,16.712049557262226,3.63135522632705,-3.558485758681365,-12.054154894958886,-1.9300405412209964,-5.246210686292516,-14.494857247584315,g
7.343722226932401,16.330144568998385,4.1735095162094025,-2.4492441261834457,-11.732838682866834,-2.8558237687958403,-4.124684367614993,-14.554613797633767,g
8.672866854447653,16.177082401600416,5.18530238695939,-0.697270736432033,-10.773153489235305,-4.020326743399873,-2.5746197934287047,-13.680672081797116,g
9.951941703425721,15.981610614688133,6.457613686433616,1.5331443330729386,-9.650040679177463,-5.5313267063823455,-0.8452632307954546,-11.981155430534848,g
11.17853552644007,15.768205754822059,7.960731878634775,4.155673988163443,-8.296405280519682,-7.295573842027231,0.9333443381982616,-9.584204375064143,g
12.431383485840943,15.535392112891746,9.66098640114846,7.039158998956614,-6.4447473930003785,-9.126162712600397,2.7021076540759106,-6.660104274051969,g
13.654937794242894,15.148995373470294,11.347754850270663,9.880514195206441,-4.195870682178898,-10.853602521387922,4.355730780032916,-3.5074768844954214,g
14.565725442781083,14.564323058793747,12.621578805535522,12.186331183088594,-1.9567292389635358,-12.384753663037136,5.673068992122329,-0.5949213064423379,g
14.738964055715744,13.81510187338722,13.01400096807684,13.405037588868893,-0.1311443288741092,-13.729661851560774,6.3365527454862045,1.5322747970250326,g
13.827738741268515,12.724525035032201,12.167104629666351,13.156339469250298,0.8020847045222886,-14.976063965306006,6.035088904913073,2.4448416137211053,g
11.792479191379023,10.977237535334753,10.027925645139474,11.431414687653202,0.2789318928729272,-16.171187142333448,4.636479120222322,2.0063819152277573,g
8.988629895769694,8.619421104103157,6.950843928878692,8.630364253297696,-1.761470689345607,-17.192545961931067,2.3365647446182165,0.43460077269347763,g
6.03005083931386,6.194193454375858,3.574254486990511,5.393965264208147,-4.476246120350117,-17.775485965264608,-0.3801873995042563,-1.8002649680862475,g
3.504776717583232,4.215287330444047,0.5155610105129304,2.3283707372330253,-6.83570501522596,-17.719587227331953,-3.0053660804960645,-4.209417849752152,g
1.7308964059847198,2.7570931623391823,-1.8724719968087957,-0.20325098044431478,-8.681071744886214,-17.079359037606334,-5.282706460523714,-6.5129461931435655,g
0.6952292484817374,1.7174487226759851,-3.511831443208519,-2.1063580808774454,-10.623662197193461,-16.15287899495234,-7.238520342063164,-8.683197441224264,g
0.17898992261724161,1.2005755168890135,-4.451205023462046,-3.4167371772784874,-12.950857241030851,-15.291429636239823,-8.961071351497454,-10.764141692581669,g
-0.029071727184986074,1.4033059601529907,-4.729904534709496,-4.121656800759925,-15.098306063395047,-14.692981812805098,-10.363026976410534,-12.638872327503382,g
0.03391703704037741,2.341687121257583,-4.324985402487081,-4.082922425852891,-16.210529033477766,-14.314524342236712,-11.13413658982419,-13.9689929825339,g
0.5076254128596016,3.929402973937126,-3.1870333454272037,-3.135164483752927,-15.785585659540923,-13.959828855836282,-10.906793032340307,-14.362839636894318,g
1.5231205977001083,6.117386548750916,-1.3754078414056048,-1.3016127960153336,-13.77764531119287,-13.51352351042926,-9.525117955536555,-13.635707022987015,g
2.9647751759127985,8.673448004446204,0.7805186467621302,1.045999299634508,-10.611771218030691,-13.16168597347318,-7.251689014298265,-11.977748817627297,g
5.279269501642577,12.478795433144365,3.745627184629002,4.641000883500863,-4.801873511287413,-14.635820416082453,-2.735365851466344,-8.102489646178688,g
5.271444497967643,13.000465559887019,3.697666403428177,4.890271724642485,-3.6476329022908103,-17.077058629154372,-1.6894171518267078,-6.951040248465867,g
4.479316214579318,12.794206857194473,2.72989242464981,4.129621916388116,-3.4416911661480176,-20.451319110472994,-1.6188549094929763,-6.490487981945483,g
4.479316214579318,12.794206857194474,2.729892424649809,4.129621916388116,-3.4416911661480176,-20.451319110472998,-1.6188549094929763,-6.490487981945483,g
3.368864802545739,11.9510394083279,1.2970025303634718,2.815434406888876,-3.8948323759657186,-24.340036681140695,-2.2802096735478488,-6.425369456620926,g
2.4587097323802296,10.366178373204729,-0.18393513897609778,1.3928274385388626,-5.24054425010115,-28.452562019513408,-3.4763678104029636,-6.438864519704166,g
1.9832713727763978,8.113857104512018,-1.5542246868214729,0.01694508650618367,-7.637877600562396,-32.757122191701775,-5.223589425569037,-6.463243694628713,g
1.7730947288544976,5.525301883174861,-2.9401289494129346,-1.462791375174196,-10.589290583548692,-37.37123771570531,-7.685994820952547,-6.719106666722406,g
1.4490921796886465,2.8799781359317156,-4.563184255007819,-3.248410946723394,-13.381212687752122,-42.28601613010911,-10.957360691058843,-7.523747849393915,g
0.7763555680739923,0.33737154972158584,-6.439758212523584,-5.289555180733065,-15.814246744518323,-47.11228534962971,-14.838000863130834,-9.028582071215906,g
-0.1243423948647648,-1.7911214821342547,-8.220505216687865,-7.201018623084233,-18.08145842934267,-51.077501454638906,-18.76702877011746,-11.061940716224873,g
-0.8856184937842618,-3.042834077695203,-9.359757489837316,-8.479812518099974,-20.12702120763057,-53.35062612225896,-22.0065335824238,-13.175645582399117,g
-1.2094580357954652,-3.2006529391546317,-9.493819641751678,-8.837551469801053,-21.512991088179014,-53.480380731528896,-23.986571709118063,-14.873322400888421,g
-1.1092353036643599,-2.442416370126384,-8.689703373404335,-8.377885176671061,-21.77387862274625,-51.60773131650461,-24.55538614937697,-15.870889747888484,g
-0.8990147705444785,-1.0276117226758372,-7.377381255017073,-7.498753983860927,-20.607530645846598,-48.32340152085785,-23.955348203816857,-16.202538770153176,g
-0.977853268583482,0.8598384983028357,-6.086769836690812,-6.623930344739352,-18.002784716101235,-44.34136067346411,-22.599214960260067,-16.113187243311437,g
-1.5890781018614164,2.842819325114484,-5.206192767520347,-5.9771985102995995,-14.657623157736921,-40.23004044322575,-20.855548597105027,-15.861632614304366,g
-2.708123806594519,4.287881756689353,-4.859881741470419,-5.546650965419502,-12.055354449437672,-36.305856276632916,-18.95379865991846,-15.596670686362552,g
-4.097125996693453,4.809639589173552,-4.912182724303922,-5.219571596672012,-11.44753077449936,-32.67184284086769,-16.981502349913377,-15.341925277077664,g
-5.449957149109828,4.671965717624754,-5.092554248886661,-4.935983190452059,-12.592701548919086,-29.340516095394044,-14.928660032344968,-15.021792240166643,g
-6.513100038383728,4.470028146268614,-5.177784507348386,-4.723330181266898,-13.890271890326531,-26.34715026271026,-12.76458720845869,-14.494289835439739,g
-7.1340207973691365,4.547726223755888,-5.106871461699217,-4.620859031240872,-13.901939907110108,-23.770926582305744,-10.516323877038925,-13.620384840092886,g
-7.28065385363094,4.856120072690725,-4.97546701454515,-4.621542025771491,-12.538377471485855,-21.689291658971538,-8.308548302859966,-12.37041497924554,g
-7.0715495690291945,5.120442506783639,-4.9792273074357825,-4.714845285852269,-10.891014469943713,-20.16942943952642,-6.36607397247654,-10.898947680178921,g
-6.76576955727357,4.885768152309875,-5.354835329443183,-4.965275348119934,-10.372697588100644,-19.311542369557863,-4.99027429207746,-9.520649267198646,g
-6.638060426759535,3.6456408088056613,-6.26638840560279,-5.499132259795168,-11.966791594565008,-19.23145406772871,-4.473289989077126,-8.582589255138346,g
-6.7837223054623355,1.3397645516292542,-7.635651012181638,-6.374112797460223,-15.603069831675068,-19.93392447898912,-4.93439028944379,-8.28424613488786,g
-7.020794140887938,-1.3212491390346925,-9.077806165444505,-7.449700629300883,-19.88839848004521,-21.21438117375311,-6.1932500725148,-8.539544971668509,g
-7.008462395548352,-3.365450166858495,-10.082430807666274,-8.397511521103695,-22.886998432879473,-22.740595275614947,-7.842434192928744,-8.997218818164049,g
-6.50849137836383,-4.4320873651468,-10.324260329204927,-8.870909265468038,-23.64116922146461,-24.253733606839216,-9.50308160012256,-9.256909714582719,g
-5.581388050657002,-4.935872581335525,-9.830844098939599,-8.712195769545716,-22.82712279929877,-25.67652654290677,-11.034175226864257,-9.139793503733344,g
-4.56172028629664,-5.434020658518032,-8.88603076879529,-8.0385781503125,-21.764688263516355,-27.020606643183108,-12.504022101649358,-8.785271410581487,g
-3.836945503520756,-6.1006013672607375,-7.797106025567587,-7.1439781975947625,-21.057473214994157,-28.19110603545608,-13.9832456434747,-8.497386570590342,g
-3.6064389887296366,-6.7586919290852405,-6.719582578246872,-6.303543106368141,-20.361491146390087,-28.863100675562396,-15.375763981367182,-8.502387690337933,g
-3.8092711208250742,-7.071906022330817,-5.639688552803051,-5.64286228651286,-19.046664431859377,-28.535738302545877,-16.42520732842967,-8.826491209970994,g
-4.267831584846233,-6.674263069092218,-4.51116914343978,-5.162221085632872,-16.694258383376344,-26.752406128020095,-16.865816920340325,-9.340898998180064,g
-4.9027070090504505,-5.487346993664931,-3.4434825284433357,-4.854197797056871,-13.297755919473815,-23.349967099533863,-16.589908673009305,-9.87616812746729,g
-5.807427784845912,-4.056254268218848,-2.75497336107222,-4.776207368473305,-9.510042174118885,-18.53613747847313,-15.699156845812016,-10.309140842250441,g
-7.116905247035824,-3.2680659885160024,-2.787171429558876,-5.015680558384178,-6.52850721731023,-12.718936016255816,-14.39083768494603,-10.59025014393562,g
-8.822569898336464,-3.5411531837174195,-3.6386994219741324,-5.617552803612504,-5.200945547250773,-6.26985470313411,-12.789253989354716,-10.721679408099991,g
-10.735782481831762,-4.4968583702672635,-5.10846085310756,-6.57282116579854,-5.232077686094373,0.5153249771520727,-10.91732232044784,-10.726698995915996,g
-12.621672586867469,-5.559641439494348,-6.9074576072835,-7.866315382980207,-5.64233969548966,7.245665571047605,-8.85191850993191,-10.65202633641176,g
-14.33433186909258,-6.623224355246309,-8.875534510696646,-9.487441188118193,-5.956134506207447,13.330618585811028,-6.853296183531723,-10.579069569672585,g
-15.805425759363436,-7.9405375931543265,-10.956453000530761,-11.346720588364153,-6.547351244848217,18.156239662433357,-5.25011561502565,-10.566532021318489,g
-16.92994407783534,-9.608215723261228,-13.00580507350045,-13.174345235406046,-7.872257587541422,21.413400299995704,-4.159332595350233,-10.531016608356326,g
-17.518069221422994,-11.410866578330156,-14.694548645418688,-14.543748028434697,-9.814635461053163,23.257570461484725,-3.3511057207428943,-10.212086459710632,g
-16.606490600360743,-13.93071571229807,-15.56780805110255,-14.621301409928657,-13.105158171213464,24.501072547574633,-1.144002355876088,-7.813844626301693,g
-15.383267334847208,-13.882454199712438,-14.573594527984364,-13.419579470396409,-13.026563407616,24.469514315029823,0.40449672395231107,-5.867678965641781,g
-14.051754110782047,-12.926889928933615,-12.955682400701061,-11.814198983963188,-11.324014916005932,23.971758382611224,1.8917617049143043,-3.7945940395364994,g
-14.051754110782047,-12.926889928933619,-12.955682400701065,-11.814198983963186,-11.324014916005932,23.97175838261122,1.8917617049143047,-3.7945940395364985,g
-12.749355200187978,-11.720178807611806,-11.0578016064001,-10.024848060601958,-8.742834444997783,22.97328567849869,3.0233759823678996,-1.7786610218275178,g
-11.34189277397223,-10.956002027801626,-9.034352017400455,-8.026447612074469,-6.644324746386769,21.72492681705294,3.74804740788554,0.168590582706097,g
-9.602578393732106,-10.70995739141828,-6.835082425258224,-5.712138194799638,-5.746008186067682,20.705689617876583,4.237803642137463,2.0746718587978403,g
-7.507220420203453,-10.548565920865368,-4.424707374510693,-3.1708806002705137,-5.4509025311634405,20.28250036086325,4.65345551713482,3.8370992927947833,g
-5.351172049477486,-10.197519301763425,-1.9898827631494762,-0.7978033007213081,-4.625750233901093,20.413353995305517,4.924051756768562,5.18058773743296,g
-3.5509002053994507,-9.803553944059443,0.11985263778698414,0.8933902289032144,-2.768347399934938,20.699661342726124,4.782938222253049,5.7962252898045605,g
-2.307991333258091,-9.597352019575606,1.6537115997253538,1.6051008473976758,-0.26543547626636793,20.730761000837454,4.037688770120464,5.569328864598235,g
-1.456269959649242,-9.656082402531734,2.6243794459600887,1.4470726782446153,2.0442872441535975,20.379218062474187,2.7847565841321664,4.695644548323917,g
-0.6352229695421384,-10.026289285804085,3.218510552216363,0.8230081343004028,3.2087762526514525,19.808277518953677,1.3456842053972717,3.547759614760449,g
0.3705268447966111,-10.72652035014763,3.587353386460417,0.11630158211306289,2.5041490968287214,19.257985389134657,0.015654846460233608,2.3896579200895305,g
1.417989909104162,-11.522847237168474,3.720971464468147,-0.5645889871592376,0.05422648344760628,18.826120483876554,-1.1180423966083053,1.2088706594803678,g
2.084097381562819,-12.018051831315429,3.4673463067495,-1.3920515693441327,-2.97978503257521,18.391487773092088,-2.162199201697663,-0.17992454356006213,g
1.96233297648999,-12.126361821711786,2.6517580244879135,-2.601065630140968,-5.295646417284256,17.707972293720196,-3.2773371735279597,-1.8862200000180622,g
0.9466587812125656,-12.22219126415719,1.2319118226549262,-4.2409048304047925,-6.571363837444915,16.603145916783138,-4.528029451755881,-3.7938053264775475,g
-0.7053841000483881,-12.680286363936974,-0.608464370225459,-6.089288239914586,-7.4785535964625875,15.136256034552119,-5.8045114220211635,-5.610728956003575,g
-2.556427237639982,-13.489829161494725,-2.518708179277689,-7.769254772714257,-8.775126641996197,13.587188170372821,-6.86370937421402,-7.0297217181971146,g
-4.249226102523342,-14.424460742327735,-4.149178841514769,-8.94918991681249,-10.71427840135216,12.30534927759003,-7.466614464570599,-7.861587705249784,g
-5.640283507584173,-15.296568203944716,-5.26933548875771,-9.47632547849137,-13.072606252283066,11.571517357695463,-7.496805676075025,-8.069473677030908,g
-6.758230197667059,-15.861263689148476,-5.7703715173789885,-9.390846286292147,-15.165658700233658,11.548507473612933,-6.969703718885365,-7.711605542555439,g
-7.689729775472554,-15.782358022445228,-5.6471562285195365,-8.862853860898202,-15.891538374258753,12.257501338254588,-5.978004548596339,-6.858814660411371,g
-8.488823291864984,-15.011998290984602,-5.016780031363995,-8.101503951445888,-14.42344970705758,13.546597567667243,-4.663803947807215,-5.564733242420644,g
-9.11840703391058,-14.020743371021553,-4.082629951084444,-7.25771720234953,-11.128579690635778,15.132482725096981,-3.2045133174242246,-3.901521544450906,g
-9.42358939900611,-13.339096074585877,-2.995149509870517,-6.357506897940899,-7.4430541664071725,16.743876218218894,-1.7529565225329022,-1.9954221252985533,g
-9.184358187331929,-12.976144618374686,-1.7559803526292612,-5.327492523578363,-4.653081498879617,18.22749128051408,-0.38153668153841236,-0.015068634514528157,g
-8.259457401651655,-12.548822510653356,-0.3135907739673355,-4.1215553284402295,-3.0431560227126213,19.489021696508054,0.8625834071605569,1.8474296952954898,g
-6.721120849083247,-11.86203658618934,1.2486822808391427,-2.851442463594379,-2.2061012321282467,20.35716688650868,1.8295446866828808,3.3586460194605374,g
-4.8549636017558635,-11.07947834577244,2.661976268795642,-1.794070259260303,-1.6712593252374266,20.559546580418427,2.2411440401979688,4.240885656908009,g
-3.0206869891192296,-10.439922327890281,3.608883766691927,-1.2529418603232796,-1.0679492495594674,19.840323203490435,1.832191388353986,4.257768148020004,g
-1.4926532474431335,-10.14162922766342,3.8880861072045256,-1.385231079970017,-0.2394188832235084,18.082790509579944,0.5146611444780229,3.3413583166752345,g
-0.3881148104545753,-10.440424569683529,3.4818001436172046,-2.1279884957297597,0.3792871344992579,15.346818875277538,-1.583470827481818,1.631662171638315,g
0.30785453480691416,-11.471884346008403,2.5453626189474874,-3.2578203292491112,-0.14848697134880345,11.854229527951176,-4.181230377206604,-0.6034425933564815,g
0.6729770545879419,-12.913587114890257,1.3546607631316476,-4.513816038177366,-2.333124465358331,7.95443444375623,-6.916872239972939,-3.0668861112877135,g
0.7798578479557768,-14.143287286482224,0.19872983226129265,-5.695669846013238,-5.570045142539941,4.047408239421005,-9.422194961952844,-5.475042082453695,g
0.6537061141797846,-14.837906196887502,-0.7454222161088693,-6.69965559187757,-8.668443712768765,0.4799322807497818,-11.422928323202473,-7.581684734402527,g
0.2703294313130359,-15.179623439254513,-1.4517780818494528,-7.501222153380281,-10.868136661612844,-2.5040877436874576,-12.804907986340314,-9.220703591901852,g
-0.403164245871556,-15.425421126362783,-1.9682209134458666,-8.10474494067184,-12.094412746122975,-4.728104625204687,-13.569622402379707,-10.318627614950925,g
11.687652016382577,7.466456403738881,2.1143714668233793,0.06271162358634808,-6.5515324688085075,-3.5994737838940134,2.3009227165482153,-8.597793937807062,g
13.63906078147799,11.86075101098799,5.215345120133399,3.8682991472618227,-4.008489612423917,-2.230065331049071,4.7953304541604185,-4.862252403095622,g
15.33704369976986,15.940291972502916,7.996997870547783,7.73407063495119,-0.8757554142520831,-1.2567464795772967,7.385738997483315,-0.7710183904874267,g
16.357378462333408,18.66431802586936,9.92293042807289,11.174434857996522,1.9644043351758438,-1.137138539111755,9.365275942431953,3.0074466466285745,g
16.317466428710468,19.664866918025446,10.677632070230825,13.697136518280152,3.987267106109711,-2.0553667854110356,10.307331106003346,5.9293146351663975,g
15.133679844866725,19.300780987309885,10.348386092455359,15.052930144259353,5.508048032523545,-3.735939300249753,10.359895557835193,7.867224295867191,g
13.063487990746108,18.079488082321106,9.31987079199051,15.319433149206166,7.0086412634773865,-5.604261880729592,10.08229813168594,9.073790809591106,g
10.515633590937302,16.30232516302241,8.008772119149043,14.767055866509313,8.402214001775926,-7.146103802188503,9.99244896997101,9.863779603454299,g
7.779460263970208,14.124143252983199,6.628297789451009,13.634419324356227,9.2132389436844,-8.203804145902131,10.21019214775795,10.327157384945892,g
4.870271842862718,11.568558777090894,5.1031837903349855,12.00029128214322,9.133400561452381,-9.025962556023355,10.440239115679987,10.313562478312772,g
1.592126325769367,8.476241026510422,3.179650100196427,9.831709200016984,8.151017742486209,-10.050156497973655,10.253063181704356,9.63690355783793,g
-2.24491430946423,4.754706890472676,0.6667212744283013,7.126032625464947,6.479310708332102,-11.578977228781875,9.428299513859084,8.276243608441021,g
-6.619731265336959,0.712423134339496,-2.377156336105871,4.005101656959945,4.631355534698001,-13.60677047028735,8.098807337611113,6.41634690234401,g
-11.234376328615078,-3.130549748081442,-5.663732723960415,0.7003415164272111,3.185459763673239,-15.93052451787643,6.588182141390843,4.328626396592894,g
-15.590642090211963,-6.5774515687769135,-8.836403611163679,-2.52002156054422,2.071911959663106,-18.401177214261573,5.101078257962023,2.1994914298854176,g
-19.136527360475526,-9.792089961473645,-11.582032805703445,-5.404257650223675,0.3794870996648997,-21.044502186005722,3.5679720161208612,0.04181562343064371,g
-21.42310817560523,-12.75309259253234,-13.635218484959854,-7.731865238143849,-2.6561193359446102,-23.95590008346421,1.777634158981903,-2.237844206691529,g
-22.234773432804282,-15.009538068601438,-14.786077573853593,-9.32214052351575,-6.601408320774224,-27.11789273028153,-0.37497986931192206,-4.683704664504014,g
-21.639980231641033,-16.122872414044153,-14.944976406867468,-10.057977908732784,-10.14246234062455,-30.31599975992926,-2.776093793737302,-7.1981069088598755,g
-19.916803347607875,-16.073058134319844,-14.164441102123408,-9.906092737292514,-12.321259593027316,-33.18362031029473,-5.160763101445086,-9.57548934023244,g
-17.388020643353464,-15.071370214253093,-12.551536502216933,-8.905175463250332,-13.104446500207462,-35.31748846629312,-7.226956361145507,-11.579010004346749,g
-14.282925212033826,-13.243145418972432,-10.168864904144042,-7.125606768023322,-12.930431327506088,-36.412948713997864,-8.707446141738757,-12.97249952602761,g
-10.722839963466543,-10.696393971759775,-7.041296581913151,-4.638982415866133,-12.20643506939832,-36.35922728382404,-9.419233361626603,-13.538915695365844,g
-6.818518886210309,-7.66497916827785,-3.241245331947674,-1.533434853442956,-11.18677568347032,-35.22273564887449,-9.301140433131357,-13.146701418932802,g
-2.784620898792249,-4.356786515480886,1.0416419141602795,2.028157751442203,-9.807139166123315,-33.134566875010094,-8.408965887984747,-11.825971817078173,g
1.0157223053792044,-0.874703969371982,5.468726765513175,5.750832016049611,-7.568653065230251,-30.214309040548414,-6.884315367531919,-9.772609951954252,g
4.123662895444396,2.455626908325368,9.551432294526931,9.204128619408527,-4.073284607945292,-26.618605136133773,-4.951026069124255,-7.28596385308155,g
6.108799661305568,4.877600874294603,12.730047939652403,11.897603683308539,0.17956366308194766,-22.62794221517806,-2.9165215940791382,-4.70683173087541,g
6.7077926974707776,5.65855901050854,14.553268929816337,13.414347973702784,3.9517175875477646,-18.62137877544234,-1.0935361432675723,-2.3635868716270885,g
5.915130338964867,4.703307144041673,14.84811629079714,13.54461415699132,6.404834670701004,-14.920905910809449,0.34576055307461767,-0.4909980417255394,g
3.989695182922771,2.5065487341413055,13.747205336764742,12.352912143675434,7.743167290139658,-11.62683659605718,1.445998917077608,0.8431523527296336,g
-1.422044869962922,-3.5247493621919532,8.79101414998541,7.305781968983895,9.2384544360918,-5.376589840848823,3.347142114530169,2.241878635030102,g
-4.0213245382766045,-6.547237589650064,5.775695975782668,4.214180720787801,9.486024390948677,-1.7514491215731423,4.367336384321081,2.473684623679553,g
-6.243290797476009,-9.07476696845869,2.8729060701623412,1.1035908982816183,9.170535386297429,2.3672988930304366,5.382107333493388,2.422942214345912,g
-6.243290797476009,-9.07476696845869,2.8729060701623412,1.1035908982816187,9.170535386297429,2.367298893030436,5.382107333493388,2.4229422143459125,g
-8.101082575927572,-10.986126803446776,0.2985592478022509,-1.8697928605740775,8.183436707317545,6.731996076754453,6.2758084483051375,2.12444796258685,g
-9.651326766834993,-12.26915743229646,-1.7777567789368631,-4.537856709913639,6.5523552582153375,10.983595373831589,6.996792427507778,1.6808002458795066,g
-10.852814772001627,-12.683158207304079,-3.151497856657703,-6.678665420235276,4.761886434705953,14.894753625472106,7.6147806696723155,1.2399643783133656,g
-11.562605832155727,-11.897081589088874,-3.637185734675736,-8.093565464967039,3.6588029816395062,18.412611088472836,8.22475085314502,0.9047664884023986,g
-11.660476304299205,-10.035551565117549,-3.227690354630378,-8.743422757003962,3.5768792801269647,21.486951410050647,8.750069160305193,0.6145161305035657,g
-11.158000227656226,-7.758965712720803,-2.14958142018605,-8.801718453152086,3.7666054369636663,23.92262497826083,8.874013465156054,0.11193768568096515,g
-10.172539504796116,-5.647037710420707,-0.7076617891281567,-8.53758662577116,3.170838110006666,25.44693760236732,8.248100953782451,-0.8983694529611412,g
-8.789333184500455,-3.729476823708964,0.9387171251997792,-8.095293160351712,1.705205650714381,25.926513157523097,6.822439239683054,-2.470637813438406,g
-6.941418915358542,-1.7203074177201068,2.862906719803518,-7.347562487681738,0.42084130726763724,25.525332942063553,4.985766106134926,-4.266209584246918,g
-4.42437416610515,0.5534714929462057,5.270062874709145,-5.962765558388726,0.49192383418228564,24.66848012342424,3.3806793273420483,-5.702099741843819,g
-1.0609209956281311,3.0787693735525288,8.291547772081525,-3.6625004051966314,2.3403071189993794,23.825256556548094,2.5431854419778146,-6.291805411389314,g
3.0909949622516524,5.703483858261544,11.793607715801972,-0.4845405224356439,5.52438961080828,23.247247018322412,2.6212126863854315,-5.902547810051223,g
7.652698559545053,8.042316967553168,15.335563382915335,3.1585774490479883,8.983044090932143,22.859336855161622,3.344134071464867,-4.758122113832689,g
12.053496267018259,9.599080225056245,18.364810268544552,6.68704399154098,11.512724470802281,22.417954154106596,4.259301127932027,-3.231390525610191,g
15.788813595727675,10.258457597662872,20.536935004741373,9.677711367347515,12.652464208143432,21.807400569553558,5.071018906235973,-1.5922739038918576,g
18.609107703759697,10.473796796100208,21.87906375367839,12.060266231328908,13.266460040018922,21.181366427863193,5.808531823213608,0.12263596362341236,g
20.51444931203124,10.697278390307453,22.646608085556007,14.050292472118358,14.782404695842619,20.814695739894027,6.679676828141763,2.0372226335507966,g
21.60724244825672,10.773216178033785,23.04684380056808,15.897255776918305,17.639291942524636,20.85436076030745,7.780586404759184,4.231509225523251,g
21.947331593232335,10.17045867646822,23.106946496421195,17.65523854670003,20.812732540967158,21.245344498718108,8.976936434070803,6.599712980568067,g
21.500533245163513,8.692954319010095,22.743157288615077,19.13519148567432,22.977748870535166,21.86661805674467,10.051271428106899,8.899477473724827,g
20.177607702184037,6.67979946756206,21.878864105617627,20.037252452774446,23.750080871141986,22.678789347390744,10.903549085629358,10.906950178790622,g
17.91831599113751,4.610204013773244,20.500629407912104,20.133337695561764,23.66588870592334,23.721429519815505,11.578367905247363,12.49003292478983,g
14.774447449006038,2.8163477760308675,18.66758707290149,19.36484135734711,23.42820880477426,24.985220409185708,12.132071566686625,13.551334300693687,g
10.95562758327237,1.5026682322731522,16.502544851141998,17.81985503899697,23.451438268452225,26.293238375347393,12.511970491222312,13.9694943671467,g
6.826875132189869,0.6961855677827355,14.168299477617376,15.661184520867778,23.716713004907685,27.317982412161843,12.567613533044668,13.647494481280711,g
2.8742388136269437,0.184794987280993,11.866482285862855,13.095206469062969,23.695931811971235,27.77975933969183,12.191774279869408,12.623090157378044,g
-0.3569130274238793,-0.15172695734282238,9.878273540742068,10.39142576871875,22.73783343173588,27.71025556594055,11.493729077790425,11.123546699884312,g
-2.380527853625247,0.08623183997169973,8.54867192000388,7.874169367236003,20.91482338435457,27.518398224773307,10.837090097027383,9.498347519853922,g
-2.9473675646499418,1.5556227269634575,8.111367252329597,5.820333973401785,19.21444673632039,27.697403336260958,10.62127657066009,8.043692401695534,g
-2.1811209139006027,4.340837582302499,8.471596590772343,4.315506720858241,18.476985644656562,28.37548039647159,10.931515327650683,6.813696528740913,g
-0.5264474770450295,7.657132343756683,9.219151533405745,3.2163246801148966,18.36355075033444,29.14708170703044,11.40521417075378,5.585221119256246,g
1.5138506252521213,10.527079337092994,9.939669251032793,2.3052169576497348,17.826133887658848,29.38838310194946,11.51742470863414,4.081496556535751,g
3.671868834660825,12.544946669304142,10.54246805175168,1.5340752360056216,16.458808289251813,28.77853619063834,11.050329833873928,2.310737474919033,g
5.996651593429601,13.900140325033306,11.28385125278196,1.130916569501992,14.93905288915504,27.55202619000371,10.290566286952602,0.6876560407124703,g
8.652921315818872,14.949086468458447,12.478582347325199,1.4405811656824794,14.215005096902795,26.27841207164123,9.769136294178555,-0.23194022857312474,g
11.605068770852515,15.927712728027496,14.166906640265273,2.610542300917939,14.671465915266031,25.37675126917237,9.794119276301883,-0.18780269162921304,g
14.448900929021443,16.780821903194592,15.991444184077503,4.3834716330338725,15.994297134825947,24.754789320626518,10.166702498722504,0.5620056107111884,g
16.536709921451834,17.004697065815556,17.36172092265229,6.178322478790175,17.348941519232852,23.84816247793004,10.275964366088136,1.4006234079402025,g
17.32066395125262,15.881543305630236,17.8107922628269,7.411671421578214,17.70032035883093,22.044613359510386,9.495915224270389,1.7421976020588743,g
16.676344253472386,13.193623104624384,17.3101334512726,7.8289659672430645,16.533400567233986,19.181715930926106,7.623692259280506,1.3777040914506447,g
14.977629005700106,9.622060654056414,16.289539714881254,7.615615255042061,14.481948283102309,15.723300110709648,5.051738723922632,0.5754753857709416,g
12.878031028984605,6.21815482170486,15.327420319707366,7.225971070201124,12.867980087610752,12.478232905717306,2.53311710261773,-0.1184905024930063,g
9.585010830706983,1.7685441455522048,14.698130217582332,7.309121635283118,12.787280901041424,8.912338340931957,-0.11183751379898066,0.2638352577301752,g
8.777353578491736,0.7137783790120629,14.94223298214816,7.831218585856777,13.245916637079784,8.751699867383197,-0.08306062280899011,1.1872892589058688,g
8.501404350545425,0.4839172016017727,15.428595599585112,8.451833383902166,13.629062984404623,9.418301805558169,0.5846291333669962,2.207810928011061,g
8.501404350545425,0.4839172016017724,15.428595599585112,8.451833383902166,13.629062984404621,9.418301805558167,0.5846291333669962,2.207810928011061,g
8.711818411003097,1.0581797819522545,16.14340430016117,9.058926194413734,14.133312613057944,10.743651880423815,1.7164477424153735,3.158224675521185,g
9.367108335987474,2.2785912428424906,17.065276375386823,9.64245218075757,14.793385409866824,12.638160302154727,3.213911560151169,4.0193542215416915,g
10.363138873154124,4.016357294993798,18.081569900805864,10.210347533114899,15.477004110157385,15.004869855808682,4.990915473999474,4.8000977540779735,g
11.497209744053885,6.121556984866551,18.971053286743075,10.702660134984825,16.1152534718827,17.627991398943433,6.897898243079323,5.448936648673943,g
12.51271381827539,8.207835104064067,19.471750884875362,10.98101200513827,16.585461020370804,20.1338018846643,8.679513389684107,5.845629402084819,g
13.19212859584079,9.787389359362725,19.412421798449262,10.890808358950116,16.60536724066569,22.076610148722377,10.01440396965025,5.8469874998935625,g
13.425444289852887,10.672385707344294,18.811295732222256,10.347378408984918,16.074528362602813,23.094088404779043,10.639607490868787,5.368684289866559,g
13.210750088045199,10.97611164947185,17.839891302497442,9.394535045749858,15.281662042088959,23.015862070057416,10.465995575392355,4.461934528498806,g
12.60521553513348,10.68114934909677,16.68643030759001,8.199464594461782,14.419357762420205,21.877808620142197,9.588507547251638,3.3018354045167926,g
11.67431571282604,9.529924193409157,15.465182903856306,6.978462018449244,13.140310357322315,19.885214862528372,8.210706065346686,2.07044609659302,g
10.469499989984486,7.464950153485063,14.23585224413516,5.8966743915295385,11.047228196174881,17.357474001903547,6.571564258621727,0.8506522906755611,g
9.040461148951547,4.886177064382055,13.053887929690102,5.018030367430564,8.485228261301517,14.646184034436368,4.907567880214372,-0.3499556975778019,g
7.478244373939158,2.3049681203561923,11.986229526720276,4.349939527039458,6.40207126686925,12.058025087722507,3.4310244983371576,-1.4793055859130266,g
5.96242770376797,-0.015727554038525327,11.125707893123304,3.9391734456486036,5.486261708578221,9.85172071752292,2.3283057157291047,-2.366009519828263,g
4.753528190166799,-1.9331980386240795,10.616088418082132,3.9155348667904297,5.823819255425297,8.294355784637377,1.7804700105147262,-2.768849630051179,g
4.094877740387354,-3.2376856649378736,10.615567818952062,4.42367793850851,7.265289734983137,7.663545916395857,1.950136050301921,-2.510103156470513,g
4.080041687845639,-3.852202601343495,11.183948033603084,5.4961321504865905,9.59297701745767,8.147231258840678,2.8947403007920345,-1.6003933151420864,g
4.5997618589270255,-4.004157142664202,12.214662295840764,6.98296222489846,12.310396287481982,9.740330945594227,4.486048883491496,-0.26901435369314486,g
5.419415244872406,-3.919484705491159,13.500535424950446,8.599458535204722,14.810931519110184,12.238669023251868,6.449861626396531,1.145596289641223,g
6.322153043997242,-3.497779021299121,14.848555769638992,10.047443100511833,16.93520300753161,15.29919943973031,8.499484179949986,2.388545440921802,g
7.215161228218484,-2.5522228529222777,16.121284038734256,11.117990859433347,18.971460145275845,18.493519054238284,10.422013209697452,3.404937213067165,g
8.147496555466851,-1.232511110965783,17.220788926092318,11.720189816051679,20.97255353917045,21.362777622547373,12.056856870856787,4.265829284316739,g
9.239633967274068,0.06357960341674244,18.08766705815223,11.84348403696848,22.47124688444289,23.49863297688758,13.240352785958098,4.9795557847411915,g
10.551672621489551,1.070582271928473,18.68675152362759,11.499050321086859,23.017709479613163,24.592905011102346,13.784015328245783,5.382622299375878,g
11.960042366293198,1.6432363517618562,18.926083532523254,10.690590324690968,22.567128206001385,24.404999481315617,13.478388420719394,5.210226824996953,g
13.143979933280605,1.474052108641377,18.590471536495162,9.437663687967303,21.119145603601957,22.726145070214503,12.127459683516143,4.271818102364212,g
13.719833443652638,0.19966214569244894,17.416938634163735,7.822629352811961,18.42409154665085,19.451760884811122,9.652561617459332,2.5950651397628675,g
13.430123742277019,-2.192589636546392,15.268517980906925,5.999155034123128,14.408265075218406,14.718610122035162,6.21905983446333,0.45170858449295304,g
12.243039080174382,-5.367956693856739,12.22959794842769,4.1341988889744625,9.570016027171624,8.94927049765076,2.2401557168555115,-1.7581098479757622,g
10.31170785052808,-9.066863114960222,8.559934799537135,2.3319758456100006,4.595388377180561,2.7468804557863935,-1.7957097820881376,-3.714019469422064,g
7.865790889038872,-13.205909041368987,4.611330256889254,0.6193250057455714,-0.1511934865042736,-3.2626356748994483,-5.526164568840274,-5.333074635052708,g
5.131215658612339,-17.50885355361027,0.7807700518068043,-0.985276517046511,-4.415853135248913,-8.543742250757386,-8.767105669739323,-6.7298963414649196,g
2.3133678375460853,-21.375672010982605,-2.542334991181968,-2.380754257793071,-7.65822681907823,-12.70862231059175,-11.414024229902811,-7.999976678418294,g
-0.3771104369669125,-24.26121259467599,-5.054371044794309,-3.3567582346568288,-9.363275879882421,-15.522601561132271,-13.323767234536186,-9.030562499090458,g
-2.7010032580646017,-25.935973304358942,-6.5756566377640056,-3.6681465884099125,-9.60318110569149,-16.85352872117174,-14.272108379525397,-9.517837476943969,g
-4.417042205258673,-26.285318457039313,-7.031230741782716,-3.17345332678073,-8.842664710096884,-16.627342874285723,-14.010086237628581,-9.166321975310742,g
-5.367227081440444,-25.180570223141455,-6.454785025753682,-1.9505951410796332,-7.291407966186713,-14.885059069797046,-12.417067104733587,-7.906769555367975,g
-5.557594001748373,-22.754256257943457,-5.038227482992563,-0.30483517867853155,-4.886789813921,-11.909033245829793,-9.682408183601812,-5.99576455035344,g
-5.148748421591373,-19.534838954642204,-3.1224474262573407,1.3544853405733275,-1.8275207387850336,-8.249452666717556,-6.349891738916254,-3.9444961055561145,g
-4.352502680447804,-16.053403561876422,-1.0738730863049804,2.6996098557346278,1.365440011543275,-4.566033204141519,-3.116568643329478,-2.2935958887896133,g
-3.331087209770184,-12.496702152498717,0.8387470748316886,3.610767605553465,4.315234019112338,-1.4147604953921533,-0.5140903912827298,-1.346963103590883,g
-2.1861646594944313,-8.958569743972408,2.445644067399533,4.161466090032991,6.842286470030426,0.8432678265873463,1.2628224383108566,-1.0557771966186527,g
0.03518210371040505,-3.58686302119224,4.198369028236597,4.635653091139586,8.711833142598168,1.9239008232030508,2.6000513781835535,-1.4475313648368366,g
0.8377499396245442,-2.48308125918295,4.169784414158711,4.532631418071575,7.225115304064348,0.5625687693746559,2.249615255310306,-1.9370517449186075,g
1.345075016879891,-2.4252294491788247,3.5907008831816993,4.050510197238784,4.584675967031286,-2.0535538679411087,1.1191445272586873,-2.786916213892386,g
1.345075016879891,-2.425229449178824,3.5907008831816993,4.0505101972387845,4.584675967031286,-2.053553867941109,1.1191445272586873,-2.7869162138923858,g
1.666871644724657,-3.253218004008082,2.664442193797872,3.160338650700921,1.475245526675607,-5.7532474837982965,-0.8587581683038747,-4.108103331022909,g
2.0279102626777528,-4.6780027982135906,1.7108512425618223,2.0242436275536857,-1.6827438186732344,-10.19402007092312,-3.5616024000364943,-5.798946489278212,g
2.6169836653478065,-6.145412868835492,1.0750626260831613,0.9522764832715758,-4.499174473609525,-14.91789026026125,-6.6157212520121735,-7.522714568818205,g
3.415817919894333,-7.145595686569808,0.9488759945499765,0.24025075712886707,-6.491977058176114,-19.503435939094693,-9.525758373549133,-8.843658852476883,g
4.15339861857043,-7.6764084687362555,1.2399525841916526,0.003501893881048668,-7.557290742398559,-23.68372953077296,-11.911567525205689,-9.449032771565419,g
4.450373845596044,-8.101885479406297,1.6482284055634775,0.12915174900891024,-8.183178646693511,-27.302128276710857,-13.63435011516628,-9.298270799863808,g
4.055537461681075,-8.535754568049494,1.9007655064912972,0.37913098470733103,-8.788273086731634,-30.16667926595657,-14.70641446301361,-8.568557998828132,g
2.9959302605727642,-8.64788650361523,1.922583515384384,0.5635116208119002,-9.08908950238264,-31.987467600644557,-15.117262143695058,-7.451286508127413,g
1.5402852206794795,-8.097301543975133,1.8161187053361254,0.6540487185155466,-8.468718775576708,-32.471293446596505,-14.770514823697372,-6.008661160877928,g
0.018838112808809003,-6.860451229079523,1.7234226236722592,0.752346978016923,-6.745728417198313,-31.47762493393923,-13.569736215043406,-4.22371692152852,g
-1.370973248322624,-5.1012915060819335,1.6939581894301843,0.9371194534175608,-4.254227105692763,-29.122521673056724,-11.551209573971274,-2.1598672459921735,g
-2.641805559943005,-3.054295924913493,1.6195728434410697,1.118715853640848,-1.4368918471879037,-25.791702367136374,-8.962633641385981,-0.050222821063542075,g
-3.9132886074683038,-1.1327851237226825,1.2842133618418536,1.0396313149407725,1.2239922008795976,-22.04638453952163,-6.232249470811121,1.7624954554069538,g
-5.193313554025097,0.20061467703634578,0.5450897396133859,0.4441169216405812,3.1102154274316134,-18.428265455543553,-3.8128735523390085,2.9749893803004435,g
-6.228220054610831,0.8883806419401414,-0.4841179550952191,-0.717138799730676,3.8413220020333783,-15.274215160059597,-1.9816357764041892,3.447826514869795,g
-6.583149154640262,1.3661039611495522,-1.4573113800726065,-2.228179417956099,3.7022355895174774,-12.69860245432418,-0.7655585773892299,3.2152679363514465,g
-5.9186084074058165,2.010049974479153,-2.045311073208679,-3.750399643151031,3.2700068459597063,-10.746503458739033,-0.06932901196805741,2.3711064556429426,g
-4.240341750870383,2.7152374881800525,-2.1642184247632796,-5.039344875415414,2.656661311118909,-9.529275680634584,0.1450798133615061,0.9423739838143765,g
-1.9196829143230958,3.194202776851592,-1.9679464118616328,-6.048771456829182,1.5318655409771367,-9.194807215043047,-0.16462866633067885,-1.0944486471528267,g
0.5106392310234235,3.4303679999839574,-1.6768678487385258,-6.853927904264806,-0.17939689088861588,-9.802263407693609,-0.9934298479816259,-3.648789574833986,g
2.6011267960423017,3.568771751989277,-1.4597660028431787,-7.498963267294036,-2.140380963678136,-11.264177459488309,-2.210942057887851,-6.403181098021292,g
4.094042699275883,3.5597887746536023,-1.4422336035702459,-7.929722695992693,-4.179659161551338,-13.400085081607738,-3.6452419622509793,-8.933302538011521,g
4.870796810238916,3.216283595752955,-1.7455476374085008,-8.066628333685877,-6.485909973295561,-16.022269539487883,-5.219527733309521,-10.974686300136707,g
4.854389534499069,2.5018235831540547,-2.472258331608925,-7.919770460423036,-9.05051915088013,-18.98115133844187,-6.981078258195412,-12.560851118463898,g
3.998985119936441,1.4898980925647538,-3.6423452495664037,-7.608496968226509,-11.380615753100937,-22.149787219285813,-8.998701812521988,-13.887586213306003,g
2.3843645687859776,0.16223023118266222,-5.119664997567002,-7.259363516686989,-13.01698890936519,-25.35468572985389,-11.22462305701204,-15.041189636610302,g
0.2958626462332591,-1.445689475333789,-6.594389093901462,-6.895687508379194,-13.973328603511211,-28.311310813955902,-13.429470073224019,-15.844406141051943,g
-1.8428610546488309,-2.987537965507633,-7.701777111283502,-6.444329979893911,-14.441195584647398,-30.667345031300744,-15.277234267241164,-15.948865587744914,g
-3.6702652810519765,-4.035588117864717,-8.248116444007824,-5.856597939490479,-14.440115704470873,-32.17013833846845,-16.517766161788852,-15.100793405310492,g
-5.04949807978654,-4.55845028447425,-8.34123814189561,-5.212088602960402,-14.026296828584274,-32.80360131829197,-17.143414590707472,-13.373599116329535,g
-6.040343812944391,-4.864627102208594,-8.254510863444624,-4.684701262548193,-13.459875790531104,-32.72678880068117,-17.33237753759239,-11.161163393595013,g
-6.718025097922203,-5.061133558138128,-8.138797487490008,-4.388911331249415,-12.801146007347615,-32.06193299838885,-17.20112793655764,-8.8988212010914,g
-7.035099125033051,-4.880306574712842,-7.8900249867780925,-4.254437958299211,-11.663972937781933,-30.760398796168367,-16.622520806298137,-6.740566989457358,g
-6.877863150652698,-4.097890398791795,-7.311064549606796,-4.069350506928559,-9.79901350237309,-28.68699207804939,-15.320827852372275,-4.505997156754693,g
-6.267839611162835,-2.82643624507841,-6.388366602175777,-3.681267842445096,-7.69807374835383,-25.83142871831874,-13.154684744745847,-1.9621351077763478,g
-5.504991695592212,-1.3162329231877838,-5.4172491328986165,-3.1865340120483006,-6.187022611012962,-22.455446392677032,-10.310581722967871,0.8365471664257541,g
-5.0873251333000145,0.2375316369207173,-4.885808677558008,-2.925894182999324,-5.56670948411388,-19.06594017941506,-7.253300010518184,3.4723821506682797,g
-5.433407789592374,1.5818951044651066,-5.212197483723763,-3.2679763131928445,-5.550229980766703,-16.226908252619857,-4.511402988050159,5.394142518007997,g
-6.61188884856638,2.4212154575722784,-6.497263842912126,-4.3509944535594185,-5.88731414440768,-14.313131066786278,-2.4609958003625487,6.228267295931124,g
-8.291952241079183,2.752248309221595,-8.451804474977148,-5.989047015380359,-6.591279846926514,-13.36752812414096,-1.2206118982294079,5.941704135853565,g
-9.954776827491804,2.951866138972096,-10.570683934805288,-7.8026047095478335,-7.64136452211976,-13.181305430410882,-0.6978760113630148,4.785720667892166,g
-11.193397702813694,3.329696512714622,-12.429342029305811,-9.4459678497616,-8.946739659189113,-13.529918489919961,-0.7388067384705116,3.097153894960139,g
-12.035844250122327,4.158204154520882,-14.812320253777893,-11.649721119210525,-12.65120741234747,-15.642764466218429,-2.1221643632552016,-1.0384705891786423,g
-11.769457413539655,4.5253725649841225,-15.303878670580684,-12.112433734533957,-14.670133698945591,-17.409560668597088,-3.230747625468555,-3.2241846978441915,g
-11.073276470930757,5.131053788307239,-15.268258564826606,-11.99647810368988,-15.865325040502317,-19.460629080424827,-4.3359300115213495,-5.168822401793905,g
-11.073276470930757,5.131053788307239,-15.26825856482661,-11.99647810368988,-15.865325040502317,-19.460629080424827,-4.3359300115213495,-5.168822401793905,g
-9.955799248795097,5.93403897832762,-14.715013440100574,-11.156825069442036,-15.934969727030682,-21.51919100563669,-5.24842693762185,-6.541967859172243,g
-8.573893319003338,6.661153388715215,-13.796772457963517,-9.597158234616021,-15.313701466067187,-23.327919414923997,-5.910836379301044,-7.153605675709239,g
-7.287191491358871,7.136237980305049,-12.772725589495863,-7.558839884560783,-14.472769001055505,-24.7299375000671,-6.35485722729152,-7.05553586537048,g
-6.539907307087546,7.314070234974484,-11.896892985513455,-5.439621890260524,-13.374302296893035,-25.666445776159765,-6.587404376613108,-6.443816254487485,g
-6.628450759980635,7.129954762080262,-11.297241409716188,-3.5897569959242235,-11.791304169533749,-26.085559667221673,-6.522450178921543,-5.473126735737322,g
-7.515779699585126,6.648206825837366,-10.899140505274104,-2.1382406509717975,-9.736592543361978,-25.825168046442304,-5.990327537131281,-4.144062200518883,g
-8.839720651116199,6.295792171913259,-10.467120736141018,-0.9777880908511347,-7.2960517092983155,-24.60343618888511,-4.8037658921676565,-2.3255749372368792,g
-10.129731022835559,6.587495263626065,-9.789406003124698,0.08369638885292172,-4.411119395956149,-22.191537166500986,-2.873361018644934,0.10662386701477562,g
-11.088185265710932,7.555170709035271,-8.876159948004812,1.1179373743610175,-1.1750973221058438,-18.65229706456644,-0.3288475437163806,3.0809387846009693,g
-11.737553454452712,8.691798576497153,-7.981489680097288,1.9718281010630279,1.9331898239420326,-14.423837471940743,2.465244472444829,6.22529872802402,g
-12.33369349781842,9.475005422723687,-7.421284882352765,2.3525970593338696,4.44996867312751,-10.15590293528815,5.057068109155516,8.984168043689731,g
-13.11974120695525,9.699223350087347,-7.357375509547836,2.049802281984282,6.323605136573329,-6.423609154199276,7.11265820789051,10.916382803305986,g
-14.11013568681771,9.315708053070745,-7.717473435140303,1.1212129276270075,7.59553677319659,-3.521083318855658,8.511275929603118,11.928024093084165,g
-15.067978035976191,8.29949271844515,-8.275095044934881,-0.11757282646668595,7.961134862821618,-1.4507814205349285,9.282511284846297,12.233067133388818,g
-15.690529066541686,6.772999636197396,-8.819337044045131,-1.3026708693627183,7.069681962350541,-0.09058935695643999,9.472694746947989,12.096876690422473,g
-15.849691248083712,4.940011585642049,-9.317749039067566,-2.2608147721063734,5.077171423401893,0.5965521710724735,9.048762592105692,11.602483660662188,g
-15.676779299208373,2.7439332110916568,-9.942667800135627,-3.076125006594718,2.471810179637584,0.5068475246528601,7.910068213103867,10.621802686949898,g
-15.40159930643974,-0.10875099265365833,-10.874358196065883,-3.924956374826279,-0.5005573746063087,-0.40635988886487323,6.032950395003407,8.998134923682532,g
-15.074978382595953,-3.558911390455396,-12.000670039793853,-4.815247501669402,-3.760760026334148,-1.8340509148801352,3.665313834938897,6.804984629779826,g
-14.42573280204915,-6.846673384669758,-12.806735725851937,-5.454926722061352,-6.829673077905217,-3.0275286246061848,1.3704767027448317,4.474495240887621,g
-12.997637588815019,-8.986205126443,-12.614614980917102,-5.377861817351067,-8.8701558872777,-3.080914469999518,-0.20923754985192086,2.6383329742635846,g
-10.465925467837742,-9.458901439800808,-10.991935088254944,-4.243967551463615,-9.3882104877604,-1.3851861762563877,-0.7218328939153154,1.7509812214558473,g
-6.874361983058352,-8.318273974072712,-7.993571342033199,-2.0724531370869803,-8.512186204866893,2.0950924350321833,-0.285018492185188,1.8111164155048942,g
-2.605097345999991,-5.882487373186936,-4.078857815122734,0.7906124347450755,-6.55365068508227,6.897148682210772,0.6837970485168063,2.4559962520260328,g
1.8753579855149969,-2.5980449060417072,0.18617103044992084,3.9415407498918844,-3.730055930913035,12.382136302108027,1.8215751634745694,3.348575265608673,g
6.260721507658157,0.9913361525247566,4.4140473137317215,7.177287169691445,-0.3909951521367592,18.05169634012678,3.053147246057366,4.482484267089616,g
10.42200279170013,4.481219173677137,8.473844732786107,10.499732316645156,2.968158944081477,23.637915068222892,4.531445672933412,6.122189958125397,g
14.199625378551332,7.7457184532336765,12.306827932458797,13.868048497328271,6.117251112482805,28.919860915985254,6.346463997896713,8.452698465480854,g
17.211114381548914,10.601963993687349,15.65287051040553,16.958255622123033,9.118971715462502,33.465564365600315,8.245186798895059,11.26302159131292,g
18.927153769858513,12.479317721704085,17.9970676134187,19.19824811304776,11.758063152421265,36.609317239999235,9.633610188529516,13.941855824405739,g
19.007309590357103,12.773179769856341,18.857238993476134,20.08791875245486,13.370754557020982,37.7635943027535,9.929592602676037,15.81140312078519,g
17.60135957460983,11.50016066539764,18.15086917190704,19.537142959924097,13.532341605019033,36.79994941812739,8.998148193611268,16.554343197521337,g
15.319357893268702,9.289871856745318,16.263895944663666,17.924584088698506,12.560120349976623,34.13532580446499,7.266686228578081,16.386199485611158,g
12.86862167581891,6.721739779642189,13.760699160772555,15.820277432121012,11.022319333364498,30.45729008477112,5.3966649887185385,15.81294161926451,g
10.652884687469605,3.951767431826704,11.03399580178107,13.60311905340358,9.070977620814487,26.35819555171014,3.81264069878223,15.183698831674366,g
8.649448346798202,0.975736655363751,8.190188707255292,11.289524604352327,6.602308569804539,22.167448122460733,2.4963556411553696,14.447787345662746,g
6.631718625667199,-2.0984451517521316,5.193897441308574,8.7023734265553,3.7664980314035477,18.039537075528646,1.1644806699220736,13.318600057298074,g
4.523239750192231,-5.12681988870495,2.0999889008510007,5.814021200539631,0.8965636117288532,14.15928340515884,-0.3797728268655346,11.648019260900734,g
2.5814567668166886,-7.952986449078743,-0.80851149146708,2.9526029447298874,-1.8446031014309046,10.88022324079972,-2.00671867380462,9.652151429720513,g
1.2649969366424674,-10.226331349777865,-3.0853943034731564,0.6901229348457445,-4.318598374025977,8.667787942535549,-3.288211187434512,7.819775216469415,g
0.9018243720313945,-11.50697574755085,-4.372116568009465,-0.4931574031090066,-6.108462284448702,7.855660964119329,-3.77267972436132,6.611018635822047,g
1.4348050893680675,-11.758380150593915,-4.646326679949977,-0.49773798799809443,-6.8525213909518925,8.400766926276583,-3.3214837278431424,6.172066323665481,g
3.4457709901405784,-11.339783676549422,-3.540449699359563,1.6172036398774423,-6.546054532066144,11.689469776338226,-1.1043512406197318,6.409465344569512,g
4.14360481782723,-11.336366519182874,-2.7955588442766897,2.9000192365421227,-6.268449240707908,13.456180089260386,-0.36528366906480597,6.309359751314236,g
4.574642573714092,-11.255437104331193,-1.972623920235454,4.142700428937647,-5.6100900846002,15.032998908912012,-0.1687067918004782,5.956299371596414,g
4.574642573714092,-11.255437104331195,-1.972623920235454,4.142700428937646,-5.6100900846002,15.032998908912012,-0.16870679180047804,5.956299371596414,g
4.94316387788092,-10.926946914683647,-0.9659203433621404,5.451253448716487,-4.406570867323672,16.424775902459153,-0.39149512239365347,5.577626923293683,g
5.378831745856358,-10.328552832396701,0.2128071952384632,6.869766679948971,-3.049783190468254,17.579469434636533,-0.842516705381503,5.350027387645005,g
5.78336295351113,-9.486707335840412,1.3512151784369277,8.220002051137257,-2.070847480107221,18.295054638391896,-1.4059538405611849,5.232436381920123,g
5.881516249409786,-8.598431843737723,2.1081110125932017,9.161897433119162,-1.7637580668843147,18.300610507996602,-2.0568408513899143,5.045510076447519,g
5.430882892422979,-8.070391765361176,2.2101428817267554,9.417877240806046,-2.2650928987259724,17.46148692123817,-2.7818164643835486,4.679860216367993,g
4.418904228958828,-8.09180540338523,1.6563442983536436,8.962746174507386,-3.4966575845108125,15.949493427354705,-3.476203453063442,4.233031735937358,g
3.0761671229040446,-8.250671324650265,0.7396621836440792,8.01680295314022,-4.850913328168275,14.19609067440046,-3.9164940532620216,3.97096176081804,g
1.686401739869742,-7.901875200514816,-0.18626126397271509,6.856082197609166,-5.446236925837707,12.615698754402198,-3.873648051387081,4.137916740957444,g
0.36059614569289833,-6.903247765703815,-0.9920205768766703,5.613937206678867,-5.051247825826366,11.336865405928776,-3.2826651174444925,4.744257341457603,g
-1.0171230011657506,-5.723314428252152,-1.8181220435941108,4.250156852540463,-4.425451558975739,10.207225040369995,-2.28173254583423,5.514128744472595,g
-2.6232849849458963,-4.856291898722825,-2.847263825942474,2.704393327124053,-4.426136429366723,9.063019627977425,-1.066262297693899,6.074777264676799,g
-4.4643816988697544,-4.4038654070731,-4.057970837482339,1.0753209105503583,-5.051154320368112,7.988259495102023,0.27192510486406524,6.233663116774595,g
-6.291955937741396,-4.182315176759318,-5.192413243023572,-0.359652095537166,-5.623021660870215,7.32883921799705,1.7417200398841026,6.074370095676776,g
-7.741688785381979,-3.8925641166602802,-5.931932475853426,-1.3191132902397975,-5.578614267071576,7.475021174090375,3.320309980093184,5.788362643010222,g
-8.584258640753745,-3.1595067690959917,-6.122098844393397,-1.7340908601576115,-4.748407736374849,8.594817163421643,4.858329738132866,5.443088195991914,g
-8.881581533753115,-1.7823502358603869,-5.895489458024498,-1.8054726016366556,-3.2258339104988467,10.499527065579606,6.105690785228009,4.925351778722357,g
-8.915369834390589,-0.09506248018234623,-5.599586453735144,-1.8414679002085268,-1.4558536484683464,12.732331407719643,6.816407609350482,4.079124796494527,g
-8.9449272556761,1.2142272016712612,-5.5488466079991206,-2.013511911937482,-0.22482613490990558,14.829554060784506,6.865785220840985,2.871921377628827,g
-9.003122578599777,1.8170328357807577,-5.789647058353525,-2.242461023614659,-0.01852299863883795,16.55505167693043,6.316640310903249,1.4439665435660793,g
-8.90834278257704,2.062588516878649,-6.10732622764754,-2.308792400016249,-0.43846026471110583,17.90698559496069,5.361713607806266,0.015500989005471855,g
-8.474061393023437,2.4611546796259667,-6.278708204680301,-2.0844292424074107,-0.6761438250141811,18.911115108397787,4.145252387186947,-1.2780524951909462,g
-7.721830783210666,3.093813888768195,-6.309580624641674,-1.6846518384577407,-0.5089884794710031,19.42796011493831,2.6146324898287725,-2.4962789861322614,g
-6.910025354178927,3.671615199842492,-6.427337205751115,-1.4105986976659985,-0.43569713439931973,19.159507839993616,0.567678751426466,-3.831000431472991,g
-6.357020664196594,3.895849456078339,-6.871711894566266,-1.5261532709095424,-0.9356572816373319,17.81950690406811,-2.130475689901558,-5.390766220279659,g
-6.2064818207846155,3.543390194438878,-7.692844997399068,-2.0497713749881177,-2.091678592843963,15.310245897261083,-5.359007354765074,-7.029198302404123,g
-6.324001702818409,2.470056180584848,-8.694654607646504,-2.7363009840595027,-3.909833911008223,11.805919388061282,-8.728836818341225,-8.401960276609934,g
-6.410194175355306,0.8591622889805286,-9.534164174100578,-3.2723812698641526,-6.419416881176511,7.721992274241313,-11.726315958765456,-9.20612185332443,g
-6.241857318900769,-0.6777560076127124,-9.920829434410418,-3.5256992016814572,-9.270986597981103,3.581003901979288,-13.910527483815269,-9.370401469535034,g
-5.838100667517898,-1.55389368106472,-9.790653617951417,-3.631479431332365,-11.691989253973265,-0.15455273731753963,-15.06233893929323,-9.034021191967945,g
-5.4015292031615285,-1.686425081674765,-9.292180681084378,-3.833410433764415,-13.071336553013586,-3.1510204876267176,-15.191220389200504,-8.360801766778955,g
-5.084658656441191,-1.2970334144697337,-8.565016044673099,-4.2134153684985485,-13.260279597845408,-5.126191346602726,-14.378284831828472,-7.354413774551,g
-4.800772095407449,-0.3855904691573137,-7.5343054315994324,-4.551743051839751,-12.194781587078355,-5.762213883333127,-12.601810116466817,-5.820515699407567,g
-4.264988383322702,1.2614817162600145,-5.9655336848381175,-4.457539744104055,-9.722800990622002,-4.778378734888579,-9.761771987699671,-3.5328038847078473,g
-3.243117621468852,3.5909437173488508,-3.745121879230189,-3.6864771889587997,-6.112071419551886,-2.1397314244670236,-5.926039827186815,-0.52292715643834,g
-1.7993610504159527,6.139700042496179,-1.108115298832238,-2.3980113249234516,-2.3135301060447993,1.7975080284412506,-1.5502590979058422,2.730844864648501,g
-0.32429660372693564,8.394134666249444,1.4020286683900003,-1.1261373917021344,0.7072273579372386,6.354802125878386,2.589932457250957,5.435932475375919,g
0.7124433116624846,10.05062151028675,3.2183143333193174,-0.43955166828912384,2.7077506658741934,10.792435384557736,5.752002712837391,6.914932908366974,g
1.1182753682388056,10.979065105836806,4.09320833225792,-0.5229972151977511,3.9936419225293527,14.617723764690316,7.611946966581163,7.020941527342147,g
1.1488223169524079,11.27672817444233,4.266069643630425,-1.023523643183203,4.818668736538985,17.745837006354634,8.396237964345671,6.197459471498367,g
1.304716838871973,11.376202904779124,4.277976441616117,-1.3338815046284107,5.272816200233121,20.355951385132038,8.634191651396623,5.1171731829083305,g
1.880535401420947,11.700492011169413,4.49602464222833,-1.119027042026244,5.4055173621666395,22.494641590164182,8.666396433671581,4.165360871199694,g
2.6556812235816047,12.03692812838242,4.728993019737123,-0.6463334671089548,4.962015031793334,23.762566993732715,8.281799360878118,3.158073964326158,g
2.5131533988281363,9.566853726829772,2.760448248278055,-1.6073130074459674,-0.4190799401711439,20.96461555840616,3.8079772898631683,-1.1406183662597318,g
1.1190984555068588,6.29264610068154,0.054102354500796326,-3.605589575587424,-5.505150981521174,16.4513593637999,-0.6624312265542642,-4.628120800072254,g
-0.6450267319570414,2.455205861882789,-3.1603609190116413,-5.975318545915586,-10.84607562675767,10.636786587285366,-5.760551723869641,-8.093153097757058,g
-0.6450267319570414,2.455205861882789,-3.160360919011641,-5.975318545915586,-10.84607562675767,10.636786587285364,-5.760551723869641,-8.09315309775706,g
-2.1869673582149303,-1.2851031823287535,-6.116376609022212,-7.9040261598826635,-15.409851018071233,4.503835114865154,-7.195420404851487,-10.581395368324404,g
-3.24491749594738,-4.554226677591006,-8.37210144439344,-8.936613692307072,-18.751141416052054,-1.1943681423107002,-10.873826752135164,-11.62941772188492,g
-3.97546930895232,-7.19554738166517,-9.957736178087474,-9.191345340713548,-20.687801297237932,-6.151102633762124,-13.425939710175992,-11.472606761984844,g
-4.676278735541619,-9.31857549057672,-11.161629469877838,-9.129038235970446,-21.189273639668173,-10.388008918206319,-15.121810059239115,-10.746094073599007,g
-5.415114219643146,-11.218739186822662,-12.152075261292051,-9.109527659989396,-20.65154387777162,-13.937868512510681,-16.199168904508255,-9.98103343333672,g
-5.902151896219975,-12.915115843341098,-12.736064583181271,-9.111941966669734,-19.711478362321486,-16.58949612989523,-16.582106745084875,-9.288850647011811,g
-5.719754501354686,-13.864441790042639,-12.475149189349363,-8.823016058529692,-18.542138215493587,-17.919093555242206,-15.912459752685816,-8.41558773605134,g
-4.697371047712667,-13.411573276351959,-11.076399003582672,-7.9738276640903605,-16.69231604555886,-17.58277780995142,-13.868297388873964,-7.072044516308866,g
-3.07714153783326,-11.448807460643192,-8.680584548888534,-6.605004382715796,-13.776071998972071,-15.577118146139131,-10.488976079764175,-5.262689619631354,g
-1.3061398706491192,-8.39822814317599,-5.74901333418139,-5.027055060066842,-9.9490537706574,-12.209551177489748,-6.1993268861848225,-3.3349871768306065,g
0.35216638881977874,-4.676374513216341,-2.679702610972353,-3.532428930742563,-5.575304064569303,-7.849965638130117,-4.807815341447529,-1.7004272755315042,g
2.0196977030160213,-0.49188198616168927,0.43579981120024874,-2.14388333345423,-0.8919588786850191,-2.7605462697653746,-0.1082532816129067,-0.4930299461734228,g
4.030717940786101,3.911116961440822,3.6948208808665384,-0.6399481562136276,3.7293697867057936,2.834184980848728,4.446881941791157,0.49611307947843003,g
6.544797904250826,8.176422988054613,7.072086792491115,1.1699459262990268,7.621370089639531,8.558094451770538,8.669676771804662,1.555695163631341,g
9.290782397933555,12.025602588465066,10.222347424747042,3.18136579134383,10.309786689994777,13.793014502892333,12.20903006277127,2.7401992817384904,g
11.661696936528257,15.218787783522615,12.555034725559297,4.986309470880259,11.881817327696503,17.79008713100032,14.599747295722798,3.791080853561566,g
13.086515150175293,17.3170663330937,13.53408468604583,6.130964969764646,12.537308958131819,19.934526428976795,15.458794990509016,4.315855445624386,g
13.389945072936223,17.851807479336557,13.014567302267944,6.422808141609025,12.079816900207934,20.01025371842666,14.694136759027321,4.046483120179007,g
12.868218335156694,16.866804806979395,11.364737487408913,6.039263126687176,10.263542509199997,18.269935944577618,12.587200663773542,3.0028096971558242,g
12.034783260831968,15.013566946892547,9.237147504385543,5.362031471439156,7.399127666158373,15.223227678346229,9.656199162662283,1.4770769412685616,g
11.251579437921105,12.961485043452976,7.154402643449461,4.6835638032002604,4.14181639905843,11.302439178356918,6.362343266916789,-0.15122573242745257,g
10.545146965424562,10.932840864716049,5.272948800960786,4.028243629726143,0.8037413161343974,6.7032554144989875,2.8973109533457437,-1.643717018213027,g
9.7361679568729,8.90808600716832,3.511482088764874,3.2286497370888467,-2.694690245930675,1.5263422202125547,-0.7500365926144003,-2.9831677885256687,g
8.740247324194964,6.988584718951927,1.8643068476019475,2.1821922635201005,-6.28822115699634,-3.9598716384507187,-4.523355131839653,-4.233447976090167,g
7.769094783766926,5.374002356153338,0.5864661639944206,1.0634576791287844,-9.602247703308056,-9.206411279644396,-8.096272563122264,-5.328905060212084,g
7.265920536087172,4.252048808788011,0.12021286827233144,0.3061961982334115,-12.229611842842615,-13.515790962020953,-10.910958078081512,-6.0047169837605106,g
7.629042537772909,3.941608912016618,0.8488597924126335,0.35984725305566345,-13.715597035540583,-16.31478338709398,-12.404424222088043,-5.915239196381987,g
8.936249006662807,4.896909616612593,2.8395796704247305,1.4080841367043209,-13.355965731681792,-17.39795548191882,-12.263349170764455,-4.817563442110868,g
10.880485652701648,7.257223143478976,5.740684444932105,3.264170443937393,-10.621481530190476,-16.990892470605615,-10.565863552059621,-2.691905861342159,g
12.969307037271387,10.522051892805788,8.943813202888094,5.513177801861246,-5.956521420543522,-15.563438218492127,-7.714423798953272,0.25156113551878934,g
14.830268427129237,13.938400761786431,11.92748042979181,7.77571600406209,-0.6930315391151105,-13.502212020760027,-4.172833319511573,3.6787793048689954,g
16.37428368408747,17.10862624950908,14.497000521454492,9.88258902616993,4.066439761168582,-10.905184124480638,-0.19785179596873412,7.293857623903899,g
17.6972855370381,19.998787542256956,16.710903979866327,11.83990604754111,8.183988428789382,-7.673622254308894,4.195241371195787,10.928919049137132,g
18.835985274317185,22.52299814955496,18.607115403462146,13.643539514707026,12.029541516346285,-3.7931953395540488,5.819748053044238,14.468266354770861,g
19.610873353062843,24.460675911587305,20.027193602925394,15.11864595574796,15.733859371924908,0.4672964758757711,7.12698798079502,14.588378153457878,g
19.695633328017813,25.72096100185836,20.68514265369248,15.93174082315048,19.094851650682042,4.59514133743963,8.10051282310852,17.10712693811051,g
18.85999082168535,26.37038363755721,20.38263914902034,15.783410466959685,21.786395311114166,8.055799317634573,11.797393282409915,18.535799579572387,g
17.20345672697366,26.42407358622093,19.201001699360138,14.64254325482317,23.349870221472667,10.54474602679658,14.118325048630254,18.691168411881712,g
15.200136739800584,25.917477139804863,17.5513824962799,12.834553473323083,23.35568004060702,12.116491766341756,14.985715710355475,17.684821768969183,g
13.495646994759266,25.172993402264737,16.016873521104635,10.89237866260809,21.961054422674838,13.080544848253606,14.634195862465527,15.820372112846247,g
12.569659175300579,24.64202856106433,15.028810072894306,9.256557287759865,20.02235015025955,13.689366333889694,13.36788817160419,13.37868094854509,g
12.484882348179243,24.384807342173115,14.592732764724389,8.028516582902595,18.228850315801783,13.83960889876272,11.270867913975769,10.43102771891275,g
13.258132628151548,23.043139341010814,13.643402250036448,5.580404319574308,13.377837890449436,10.748735639235852,6.7960442642516465,2.326583081165554,g
13.219783708582753,21.601773108947988,12.332564187926689,3.666529232403424,9.130222517997629,6.681360832637013,4.575088733686236,0.12229910798825898,g
12.765846626641528,19.896888616723704,10.478881337900102,1.3049468105519662,4.000012331143711,1.133761013334595,1.406243736114914,-5.5137483588067395,g
12.765846626641528,19.896888616723704,10.478881337900102,1.3049468105519662,4.000012331143711,1.1337610133345954,1.4062437361149136,-5.5137483588067395,g
12.239192179681504,18.1461116646876,8.520420285401807,-1.033708506645738,-1.2961239423152757,-5.100051666241699,-2.3841724403959317,-10.696953879227525,g
12.089906680214218,16.635699803615843,7.004373774121859,-2.7614375026660274,-6.124165136078213,-11.014774104203422,-5.148286167991981,-14.677924086501317,g
12.53324872788684,15.711685713672804,6.282909232435451,-3.5240423248778923,-9.916344158394532,-15.82173439870906,-9.614318764463508,-17.061154557918776,g
13.338864989571665,15.400526449707607,6.278846515045012,-3.4159182324208475,-12.395561423780263,-19.272914903992437,-12.284941040015877,-17.919958424110128,g
13.92525131040507,15.234177863101348,6.520400189374823,-2.897740900487022,-13.901878733915368,-21.650372807155552,-13.422834375234013,-17.671052752980053,g
13.710114930075363,14.698830802326324,6.458796373167874,-2.47506001366187,-15.052029052506802,-23.43118293111182,-13.481098492515178,-16.793721637569114,g
12.460166006619545,13.716566895760627,5.808705196268594,-2.379615139255076,-15.962244973162663,-24.91653817969838,-12.774902052823581,-15.562554105962434,g
10.396790129509679,12.506389909136328,4.643373213139492,-2.4795187076242344,-16.156075715309875,-26.108045115754237,-11.372477720990869,-13.973550742320423,g
8.023723780814473,11.19261932885282,3.2444308586176653,-2.452163818354654,-15.27636261366509,-26.84634423738421,-9.24167391861382,-11.908423146516085,g
5.835825421081547,9.820829647340307,1.8921184562096471,-2.0625138462106007,-13.483547405061401,-27.029729768870833,-6.456806322159037,-9.377051484355945,g
4.100557148363514,8.563641248394823,0.7193673353165823,-1.3431410022590158,-11.113169509470305,-26.758131533340997,-6.42406183333142,-6.62153219119274,g
2.8132299142316035,7.548723821739951,-0.3466513408220435,-0.5715130176059691,-8.45615973522482,-26.341561552916602,-6.584590396938299,-4.02506546049644,g
1.8092267416629422,6.556569182086387,-1.5270410532281748,-0.09038332800861251,-6.060770181886732,-26.159333820839144,-3.9637952533996073,-1.9476031180781668,g
0.9277683420132863,5.219221104960392,-3.019100483201633,-0.11546985977804236,-4.72415048933154,-26.436040867572263,-2.188653992478783,-0.6206048630719189,g
0.1065513137530381,3.5062380352123936,-4.834812811588302,-0.6587950730148713,-4.786670132652343,-27.10360852454162,-1.3665363259862655,-0.13146770269266814,g
-0.632865984298207,1.7474810792622442,-6.792938938275252,-1.5848442532662055,-5.725680438971324,-27.87176946140883,-1.3828404107587604,-0.46303947470134005,g
-1.242831075089914,0.22516927942866688,-8.636168164874288,-2.711623599751593,-6.762373524552308,-28.423915462786272,-2.0224056412712654,-1.5432108899163797,g
-1.6705295229274753,-0.9487122371789463,-10.126290276575322,-3.866861022591902,-7.624402256905692,-28.552200257705415,-3.068690787061425,-3.2579046121092174,g
-1.848402779172265,-1.5901888426266366,-11.07591156943021,-4.897029021359053,-8.472952717729259,-28.179576021602372,-4.31675993269158,-5.41872178860499,g
-1.7172780856869856,-1.4759638893856444,-11.399050918251618,-5.689082694538466,-9.429630873024182,-27.36479610622685,-5.586231064902601,-7.7601535840792675,g
-1.2873049624100432,-0.724377002273493,-11.182010510868801,-6.2229550680655965,-10.538746329914074,-26.329552658717205,-6.799562485023185,-10.041108497096928,g
-0.6572355238460185,0.18221617276709617,-10.649088948875395,-6.587387251058082,-11.883926093057621,-25.419431726595878,-8.02823226973928,-12.176212855305856,g
0.06267887579182894,0.9174596886520758,-9.986495009732023,-6.89228298158302,-13.27645582591712,-24.95282049480725,-9.391834423525298,-14.218163601283397,g
0.8637147639553181,1.6199486033619628,-9.184718272742927,-7.1227831754133835,-14.034027690675668,-25.062899010849385,-10.882928463357993,-16.15540964315577,g
1.871190654291723,2.576450276394872,-8.056969874981807,-7.073446523353555,-13.574709211762762,-25.65651426027112,-12.300100330193029,-17.728784209428287,g
3.2551355570429523,3.8720374499889423,-6.393439276962775,-6.448367688138656,-12.15492689933726,-26.48561536248915,-13.339912088187464,-18.476610656849196,g
5.09002792125352,5.501110832019803,-4.1067002912772805,-5.0601726715755335,-10.564961284860075,-27.252951230003873,-13.735040027487525,-17.97540931225462,g
7.262334186292153,7.520311284340106,-1.3057303994720049,-2.973883454158256,-9.12707257177559,-27.715745193090736,-13.345908502834723,-16.07135829552275,g
9.465955473113338,9.82260805363924,1.6884344603921377,-0.5022966175708928,-7.432122065543121,-27.77568917777403,-12.209993023649194,-12.965014727427306,g
11.26620021066502,11.950994318819193,4.398014599859048,1.9179861199144859,-5.071783493915812,-27.50722950361246,-10.547174066841986,-9.147091951071747,g
12.201600660367514,13.392102847440185,6.324517711588584,3.878415331365339,-2.2122431496851065,-27.09152395063735,-8.680278321620266,-5.225420286888126,g
11.905548267675321,13.923221418531949,7.097112648720992,5.105371742711002,0.5669252905607532,-26.710714161734757,-6.896268032582938,-1.7049898708869289,g
10.228104853809802,13.481552820456637,6.551480659414883,5.494088826298066,2.5559955279897784,-26.48317122624594,-5.357530968326527,1.1560736545500057,g
7.316538892481901,11.9098642583172,4.743418308497042,5.076419143613358,3.021842236769712,-26.448754131658006,-4.119558811212171,3.3122292967344,g
3.5979952924625933,9.142433183416511,1.931131621100675,3.9526340347257722,1.6170555484445575,-26.574874154091976,-3.1981314781583783,4.770302804548867,g
-0.3589283571137042,5.510718585543603,-1.5008811118479046,2.2302719831446636,-1.0556177168883254,-26.7922064965097,-2.623180750300297,5.46748826994782,g
-4.036421807259718,1.5406392501976438,-5.180726614095006,0.010941697262532735,-3.7215907695452115,-27.05681014088176,-2.4706184934633635,5.28285597640051,g
-7.076674544585361,-2.4773543807026615,-8.826678427561996,-2.5570323547284235,-5.58921179105467,-27.35179540715536,-2.8424336669731707,4.146625701473344,g
-9.232146568165614,-6.4018163726039345,-12.153052250915353,-5.194312455082699,-6.936329317118388,-27.565900957793275,-3.7472918634636327,2.168414445366683,g
-10.251158937281783,-9.797778269241173,-14.72749234060409,-7.468598638431445,-8.350858778436692,-27.367892224230324,-4.958687430008643,-0.29315567961193467,g
-9.882798155514475,-11.979181520830922,-16.030759720726802,-8.921318662813334,-9.790115347063473,-26.28109614660558,-6.048353203446087,-2.709965873519735,g
-8.057271160857818,-12.588299708479225,-15.74822863468413,-9.306250055950612,-10.713496912387619,-23.968488409177503,-6.651341543191663,-4.630191610126172,g
-1.6025773025756025,-10.358990655238745,-11.397601699091252,-7.728653558806054,-10.046088479302806,-16.269571362827786,-6.563908311772552,-6.764515417262885,g
1.6233574546829246,-8.48181011496221,-8.542619716420056,-6.681314790112022,-8.644342637696216,-11.881543693078472,-6.473985536309921,-7.393930700547456,g
4.112029515695119,-6.595256887356522,-5.901434369313541,-5.812134594116452,-6.855160915770187,-7.694846056835239,-6.544347469086986,-7.812224153713932,g
4.11202951569512,-6.595256887356522,-5.901434369313542,-5.812134594116452,-6.855160915770187,-7.694846056835239,-6.544347469086986,-7.812224153713932,g
5.799307772466113,-4.922076942241347,-3.5538497482725804,-4.976727643956417,-5.1263223039195145,-3.7357897389427563,-6.551053350880008,-7.7728565889214725,g
6.92073129314001,-3.3734142593646554,-1.3203861869648126,-3.8966974339913185,-3.665971878647388,0.22250062413778693,-6.119584457725836,-7.008755405432363,g
7.704075630426668,-1.7143770792635755,0.9384321385026027,-2.4592521106332286,-2.110156396611487,4.36239780744031,-4.994623422118136,-5.4896658916921535,g
8.144564256945685,-0.10014600888726788,3.0747398471132357,-0.8557870080765191,-0.03313913381273224,8.552782089313625,-3.2412088777138264,-3.494502427831388,g
8.062991611915038,0.8250417593574696,4.718141040544394,0.5615853204546845,2.322164751806668,12.366132954427226,-1.2070019250395774,-1.445249395196004,g
7.3786927511462865,0.5976509270604675,5.618181457074867,1.5748702789523388,4.270736360296024,15.380572456807158,0.7463497070461973,0.3743178447402432,g
6.312804487865474,-0.4918960070342978,5.9070120165739075,2.2713737058352454,5.563322744980793,17.468809074405296,2.4914336560439354,1.984781341728906,g
5.311517686698747,-1.695246042539594,6.000399272110287,2.931228836109966,6.555299872641207,18.80790185553902,4.11433021310361,3.597321777891609,g
4.762830040988708,-2.4841474298317916,6.254848408322336,3.7415036679773253,7.509667929766577,19.659813176959066,5.679590383508463,5.3079871580446225,g
4.763137085986693,-2.7569629506639535,6.721055231820034,4.603760399014426,8.236539646750135,20.170612467401913,7.067075078475783,6.902397331187911,g
5.111205886055731,-2.6420887592575237,7.168972912240875,5.20192646831359,8.520094237985699,20.33487824183149,8.04238942049498,7.98193350695214,g
5.498787412210607,-2.4174200705620787,7.301282580262486,5.259241726896387,8.444513852119709,20.090525678318624,8.448130042739198,8.293606689357869,g
5.733911390202003,-2.451070950677151,6.98863360140862,4.762726187673012,8.151000741118462,19.450998603740608,8.326373360704714,7.948071293215253,g
5.843602094437924,-2.8522109724055102,6.389041886466392,3.9822802720299135,7.695817793424996,18.592360612566583,7.905552638560548,7.346900871243707,g
6.00971308540584,-3.2202500327157857,5.862794768526764,3.2906590052361935,7.325741315277185,17.82383579060561,7.487095359431403,6.91564359492437,g
6.413261132905466,-3.0280975589022074,5.723777184501814,2.940834717950569,7.475834477674428,17.44392856537427,7.294126256745416,6.862211830242015,g
7.11251665907861,-2.224067472159586,6.0310129324241535,2.9627383251747634,8.250126234405418,17.599243517157166,7.373183184212863,7.107647763618232,g
8.021505606154498,-1.2113904752470994,6.598860154209518,3.2186134737538117,9.266293663165134,18.25590599832004,7.628318719557377,7.40338153468654,g
8.960042394007669,-0.3194725807211493,7.170503804666711,3.529938737114949,10.258735783647685,19.24934812757555,7.944427253014789,7.537597205429918,g
9.719093628379271,0.3820186087490372,7.555502852404311,3.765190980458084,11.442265089168082,20.313282699550975,8.252728643942735,7.470988642515015,g
10.125665003111198,0.7873894556274739,7.649982054422578,3.8479385251317773,12.929731566186092,21.09714731341924,8.477872925877275,7.294697219782937,g
10.109893354854496,0.665034434212503,7.419954141456199,3.723016337759695,14.128068801150278,21.26152716512542,8.479756614539056,7.07398646165894,g
9.745911471332157,-0.03378378816975842,6.906768544966438,3.342818806164528,14.168616213576843,20.6402313712856,8.110576977283369,6.762305704329149,g
9.225890009979718,-1.0627738265392137,6.219673417971059,2.7037879001785106,12.798834637747156,19.335999528593657,7.344788696038907,6.283377287975406,g
8.768846904594955,-2.1696071007052544,5.497189190670172,1.9026343588176053,10.548226716376995,17.66504066249639,6.34435441760798,5.6781608854280465,g
8.508292222150171,-3.241256022115311,4.869269490672312,1.1366018693161097,8.228815817613146,15.994776871201381,5.392126534754204,5.139148832242525,g
8.408413277171164,-4.116630406544861,4.410983049964157,0.5989655125292506,6.580921990321731,14.560998711188802,4.729528481352534,4.876757286698179,g
8.258705570109601,-4.614502431556888,4.059630173779672,0.3279536076779538,6.070938437346962,13.343628513019755,4.385670367468583,4.9272707693731235,g
7.789978818107487,-4.925856112477555,3.579176031537564,0.1528741067334848,6.456996484560548,12.102682038414915,4.121798113798607,5.06696325686259,g
6.879063654380786,-5.660461028628321,2.7050865956525696,-0.17823323281327602,6.65298732708365,10.61660320299622,3.593019927506827,4.925253563375431,g
5.692743068726083,-7.224703422184014,1.4055878718706043,-0.7791375437391539,5.594916743344863,8.957996296160449,2.6535047568586565,4.243470701640514,g
4.619218000382677,-9.324135715518704,-0.012546889431483476,-1.5068527342243776,3.3434241752961946,7.528066684144475,1.5349437751966,3.088211532260952,g
4.010976500740517,-11.275553124806256,-1.1009840700828462,-2.0505966867370646,0.9700002623822076,6.781349582105095,0.6966047430840832,1.8262609030594235,g
3.9430727625518123,-12.615337511468812,-1.5867057677722398,-2.154231701819289,-0.6290034850036841,6.895740670576046,0.46933714589126047,0.8592688116705226,g
4.17450300257434,-13.219168665690905,-1.5246469453815616,-1.7994529769718093,-1.3959191783466856,7.677032500903932,0.8208147850939616,0.34440189424443435,g
4.320882691608611,-13.108039176346258,-1.21351598568326,-1.2216463970279903,-1.655631441954941,8.722044144970665,1.4220680820391263,0.1434337293214117,g
4.097144914599948,-12.48953998329243,-0.9983491905354374,-0.7546094274849662,-1.5901735696640062,9.656278983928797,1.9086070441087144,0.017410761497214544,g
3.4697797079293893,-11.836118259023255,-1.0845778462527427,-0.6183709560058912,-1.3438637290847202,10.287430984685598,2.1146985730281607,-0.136697794636666,g
2.6320660515512424,-11.540200095018418,-1.443103321359328,-0.8050072758536805,-1.1419523701699177,10.620190783737247,2.1369815981009177,-0.20914970169777414,g
1.8330187300567116,-11.499081128215916,-1.873327365762605,-1.1370765454647809,-0.9930501372439403,10.741898992778166,2.2066246428961165,0.01133292375360333,g
1.201542520079749,-11.296130490206064,-2.194202913906826,-1.4253878305237913,-0.6003720826892998,10.667167960827644,2.465565071002198,0.6572815898774822,g
0.3039399283816481,-9.96013322352471,-2.558250706515988,-1.6207787120123176,1.179295886249212,9.504267700121433,3.047708318200182,2.8371323205093395,g
-0.0038829279922122594,-9.109651436911452,-2.798492361118964,-1.6005078776106114,2.201985932117835,8.324829144910746,2.92354358108349,3.8917136020771954,g
-0.09935607946556599,-8.281696299621323,-3.1357854795645164,-1.5805292727208773,3.379204502512846,6.892092909992103,2.4168383022384345,4.64671963146348,g
-0.09935607946556554,-8.281696299621323,-3.135785479564516,-1.5805292727208773,3.3792045025128465,6.892092909992104,2.416838302238434,4.64671963146348,g
0.1325333089695034,-7.74983135193259,-3.5664685768556517,-1.5986452237122868,4.606597655747779,5.358526436061913,1.619241151240845,5.0047400355798795,g
0.7414023025653621,-7.84371540932774,-4.045375762699338,-1.639344707438805,5.229050179666933,3.850367645926551,0.6734077407035463,4.929202416177231,g
1.701210318416667,-8.4629765289228,-4.425226609843586,-1.605674850854126,4.690525742012203,2.5272535443534796,-0.24358782615652644,4.447956795487971,g
2.912035466628023,-9.017092524990062,-4.490516987430974,-1.3479116868818601,3.3055684349626624,1.6038272237443607,-0.9291085249229102,3.688148142534498,g
4.18211322722634,-9.00525212450548,-4.124774134843639,-0.7658979140256766,1.9528291019763593,1.2570387500258737,-1.2389712750025246,2.844703209730845,g
5.228241935417616,-8.437192475156836,-3.444005162132746,0.07950250290184116,1.1451865599421929,1.5167006402798395,-1.1868506700576236,2.052491421013735,g
5.742553346914653,-7.6017500823370225,-2.746272863772331,0.9467494009592171,0.7841071486472939,2.255258328957983,-0.9343598526337461,1.2822773410085895,g
5.5135056808660305,-6.720671284761882,-2.3296555391712825,1.5317601028397843,0.6415113722978492,3.2673955253012443,-0.6672826642563676,0.3903227985103422,g
4.53126072721872,-5.98548543105322,-2.3311679792774247,1.6575299505678358,0.5861312928853083,4.36590177969383,-0.47125153759494687,-0.7087521759175164,g
2.9995799467960538,-5.625824951950808,-2.6742203447357697,1.3897666859969457,0.4161345165526306,5.451973724807691,-0.2903446339968242,-1.9028407444348816,g
1.225291950539031,-5.673595018750934,-3.141697468677199,0.9718204683542397,0.002639045461911671,6.529764302171467,0.02812411052289181,-2.891391733729228,g
-0.5529691235669245,-5.859378260201259,-3.5499168879620355,0.619133409433965,-0.33552171230741984,7.633166532812143,0.6241249921680075,-3.3320028355531157,g
-2.2684908128689916,-5.993890022205358,-3.9083307354220977,0.34110291432489126,-0.047377777270185065,8.708359021234433,1.4985432282210571,-3.031907567956692,g
-3.979764909935974,-6.291935328608674,-4.403819190539055,-0.06268827389205614,0.9581940406634961,9.575657883474488,2.472133865263559,-2.067107212959318,g
-5.733335895653871,-7.088067644888866,-5.205134554913899,-0.8407951566252498,2.2058829697684903,10.021548825448203,3.2918727631963476,-0.7411969666639746,g
-7.48669318611324,-8.40500037613951,-6.303569481064257,-2.1118470502662996,3.277925587529623,9.912317512053097,3.7859171076385807,0.5914391248055832,g
-9.164720212471753,-10.06860222150901,-7.570106668092494,-3.8135991679045405,4.098696482271795,9.20792802794816,3.8987014961170936,1.6862980208026763,g
-10.762476607901018,-12.07667028957123,-8.930628254732472,-5.790000500912328,4.511361868951426,7.908731643665426,3.5937877415206527,2.4230510440502684,g
-12.35242575198691,-14.499505343428904,-10.420474760829844,-7.902603622321256,4.110894626678998,6.048911701139713,2.7878791318129723,2.7198248495878983,g
-13.964528783315249,-17.079033711899736,-12.05745985816681,-10.049616469761158,2.792535349353671,3.751280346914183,1.4224725757825527,2.5014902078119023,g
-15.449646215698277,-19.261064190104307,-13.693150813907724,-12.085023996195446,1.0664114360753794,1.2609363044185682,-0.4126314236275045,1.7723359904003668,g
-16.460878818156637,-20.624914515658382,-14.990163288918689,-13.738510205908645,-0.48267364957497866,-1.076926494094121,-2.438519996711948,0.6891636658529846,g
-16.58811948511121,-21.00836722256328,-15.529655870662197,-14.641465106081645,-1.7077333730647388,-2.8587236112552894,-4.247964106857504,-0.4623797678715601,g
-15.56282037546452,-20.258357525980568,-14.988586807254972,-14.469188430485605,-2.5793085332271013,-3.682688944619744,-5.416245820661093,-1.3690285120385786,g
-13.401586903317726,-18.230486691591633,-13.316058459606484,-13.10791502488652,-2.742283807896668,-3.2651764340378913,-5.637997589749901,-1.8034000486901143,g
-10.397872980068135,-15.10974966891879,-10.792569003834496,-10.73013275243504,-1.8332395912429038,-1.5708208797645529,-4.850921559889961,-1.7115298133989576,g
-6.97286446629177,-11.409131345312638,-7.880440849323342,-7.723482392383143,0.0046526700353954455,1.1653498556517112,-3.247071209558534,-1.2303096094478108,g
-3.49797593850309,-7.530019878968153,-4.9596792918987855,-4.521360228549733,2.3396421611015357,4.559803862282935,-1.1336596420413647,-0.5907666881120028,g
-0.21887530120558055,-3.5911131205428575,-2.1899186073212933,-1.455454599687806,4.9740955896107195,8.228555860580466,1.2270242266072457,0.03613652690152271,g
2.6867100461415534,0.20875415678668005,0.3888609526454186,1.271190707595517,7.819759320878018,11.840622069320764,3.640458607365494,0.5997666076186524,g
5.010274571788171,3.3701383270290903,2.664558585475137,3.500153885022999,10.437761776321384,15.08750972618147,5.886135260932467,1.0760284628048382,g
6.489747805874016,5.425634585798066,4.376166102921529,5.029636597723993,12.204483052335394,17.645504514555206,7.661281686305038,1.349376548998435,g
6.8885929793909995,6.261407256772524,5.190881829605425,5.62108925936681,12.879304111524267,19.16529291748098,8.63302841126443,1.2215795357176522,g
6.1089885153513315,5.945684352366146,4.848678356503244,5.101429444784192,12.574937534744443,19.301053378855325,8.535623543871058,0.5261618652875717,g
4.262001488579854,4.501570676273785,3.305496954437057,3.4803478053408283,11.24004759247352,17.808739417305198,7.253144440808998,-0.7791531635000688,g
1.666258579011877,2.087119294397893,0.8217725054510104,1.0035906058374502,8.683494058404317,14.6954663595829,4.887239214281512,-2.589823486172886,g
-1.213909127639439,-0.814170316815073,-2.0832466135842447,-1.8848910189694479,5.157548802839856,10.309522388467892,1.7833917293537653,-4.661797238228762,g
-3.86669828817141,-3.6588768449386437,-4.825218853095734,-4.656097703557625,1.4354391452975954,5.274879375065838,-1.544926989014618,-6.647065780324378,g
-5.839183038294356,-6.166083037346615,-6.966509893730046,-6.8453982576835575,-1.8241911332575753,0.3039621615866359,-4.57805805238211,-8.195275798118129,g
-6.825595893383635,-8.158842214709404,-8.300307784957234,-8.181208745573308,-4.412626569643162,-4.000729579498047,-6.931872129940319,-9.087972083599782,g
-6.721496803883286,-9.281042780510578,-8.810324602835669,-8.635000215444922,-6.222789764304256,-7.286049851730911,-8.415224295608288,-9.307907765788789,g
-5.6335617115641625,-9.198601076724684,-8.601560820342522,-8.370255318786874,-7.066788563896442,-9.496358767395318,-9.030400979330272,-9.005860440289625,g
-1.689662986621331,-6.0199607844067815,-6.632919645960776,-6.588346851947098,-6.55759502837668,-11.324402148451457,-8.319895458390707,-7.723679145375958,g
0.4472139048502578,-3.507708026823219,-5.068198960843599,-5.3625732777047554,-5.829653354714993,-11.106762106736264,-7.298750083594359,-7.008527369939804,g
2.2552060208281337,-0.49227524632157615,-3.219325329289444,-3.9887671804610805,-4.513210206854832,-10.002765507096935,-5.8579410994614065,-6.163225697166018,g
2.2552060208281333,-0.49227524632157654,-3.2193253292894433,-3.9887671804610805,-4.513210206854831,-10.002765507096935,-5.857941099461406,-6.163225697166018,g
3.467555829177388,2.77817253809673,-1.3107715930622184,-2.5458133995683796,-2.374275822656967,-7.959181608865569,-4.003107010625475,-5.0391062097119095,g
3.8851893396643575,5.790441146610438,0.2835718990337693,-1.21881755794197,0.13289742042991398,-5.195123911316969,-1.9098977877821182,-3.6499638599855286,g
3.4065254489131447,8.140952407919496,1.1902251902523775,-0.281571719356376,2.259939165931576,-2.217093666708915,0.06793028477468752,-2.2723874897215803,g
2.045427383892205,9.690917971075423,1.1994044393687306,0.007364274294829265,3.6744097015119257,0.33874981450329056,1.5317848081612737,-1.3300933208891528,g
-0.07577902964164522,10.329256392253738,0.32193384280891524,-0.47289310564947684,4.4421807347860405,1.9409749532253993,2.192908545723158,-1.1680920933563559,g
-2.7411921661582803,9.915142833182298,-1.2453482606772286,-1.646990902691367,4.597804943085677,2.3681859149530218,1.9688529963512351,-1.8994253178010176,g
-5.654023450992911,8.560029603448909,-3.200539400196059,-3.284502077144141,4.159979066957768,1.7696712708129705,0.9965344642359895,-3.400712210333725,g
-8.462598407608755,6.6653765090900965,-5.254991855357929,-5.10692462432918,3.353416731159382,0.5138972973415682,-0.4609840338483882,-5.415745038357789,g
-10.814144164105638,4.534902760411424,-7.236683594533318,-6.888739871964238,2.346461519151525,-1.0813891592607414,-2.1820825877835675,-7.693081317116658,g
-12.433719927917767,2.2041069012850807,-9.087330505225106,-8.504270783368174,0.8978762788985915,-2.9287862958903115,-4.099887182690641,-10.082590693861595,g
-13.21477014515968,-0.22109320007049113,-10.771062113648789,-9.924903010086929,-1.2854234540288143,-5.147545970470985,-6.262662123940083,-12.531009190815848,g
-13.280144264085612,-2.361854905907756,-12.228453710320046,-11.18892633161543,-3.9373500979652363,-7.904116638546519,-8.700066253034242,-14.987623208329648,g
-12.937702533043472,-3.9181743472057087,-13.418383823130847,-12.34303656171611,-6.4441921523809045,-11.228555453558261,-11.32070393211804,-17.311060287470653,g
-12.500294586205095,-4.969208229805403,-14.328600435599544,-13.357914383054696,-8.607644485596252,-14.8662154424536,-13.876082520984687,-19.255919910801527,g
-12.079639134229433,-5.668949094893882,-14.891765206523251,-14.073716097156318,-10.6952102217096,-18.24243242495192,-15.969241532549614,-20.534321438493194,g
-11.5362704351012,-5.842958830884368,-14.933469804005489,-14.249947273479046,-12.701508099097138,-20.639608396589203,-17.141331106847495,-20.907675794520227,g
-10.639676190511823,-5.150838246250393,-14.2667238885459,-13.710705241346293,-14.055149143901676,-21.53553363596865,-17.058702792006432,-20.282248882805952,g
-9.286815646807534,-3.484251684680938,-12.834115289964156,-12.469483017891388,-14.18071202142345,-20.847212346668822,-15.679820255758466,-18.771521371436524,g
-7.583467711867203,-0.9437597597337429,-10.729852081208831,-10.721675402459867,-12.934909696816115,-18.87214846087638,-13.23316140018035,-16.656484276179604,g
-5.747081579199576,2.4034699357650204,-8.109409110192363,-8.712812264796161,-10.406308957350527,-16.011735561128532,-10.022542620045035,-14.231116809440152,g
-3.9512652020054246,6.411246371916232,-5.122977192124774,-6.599205092919218,-6.797286778982306,-12.545392938280926,-6.264228012281751,-11.651313106896946,g
-2.2538314185315933,10.602378636902012,-1.9255886943637033,-4.416941613785377,-2.7285138198010257,-8.614192920885419,-2.0971753325624416,-8.934780011522628,g
-0.6626058335412754,14.37635227846757,1.2841635436320176,-2.1821340873752546,0.822699875666341,-4.367216702628811,2.2935177863857628,-6.112206008134175,g
0.7177456183174143,17.455368382814115,4.220602841246353,-0.03662989835849508,3.2640824909170325,-0.13622913950601473,6.574400646633431,-3.375490084418021,g
1.594653128515852,19.84548682467517,6.476207472733759,1.6972409101862482,4.788082882210304,3.4940327899633674,10.251178168573238,-1.0857201310616245,g
1.5754483448103584,21.402757110305348,7.584275739705741,2.6331667935361107,5.767637008207139,5.818956706864688,12.764351701516366,0.35962697551719486,g
0.41427404442415555,21.778695878184777,7.238774468521034,2.548043143303941,6.083907295269249,6.321732320613646,13.68464444679015,0.7079515405689841,g
-1.766097474941993,20.833865483250424,5.53074563156143,1.5511466972810746,5.376090131666532,4.945630829922979,12.91365171696911,-0.0181900977469446,g
-4.4641474198614,18.807884801425462,2.9659636466717503,0.06344711165243329,3.648212485020958,2.1108292676376386,10.735110518294578,-1.5167359773558817,g
-7.009573344677982,16.042367958306258,0.2281234645423318,-1.3751027679963062,1.2462519037300974,-1.5165802093811946,7.671175997349212,-3.346102712089556,g
-8.835707574982985,12.854050245482807,-2.1055450312866504,-2.3380997998113138,-1.5077763721257385,-5.297110535324932,4.274108443156086,-5.12742748705703,g
-9.653929514818794,9.748697968565446,-3.7094652924697655,-2.6586412374138058,-4.244195685013745,-8.776656137508661,0.9958829537860737,-6.670530674329372,g
-9.469908269822302,7.386607707549196,-4.506038919395858,-2.434656544602988,-6.3449329003677475,-11.7287968137553,-1.8546044681176543,-7.957748358726244,g
-8.465141078479473,6.116885339587364,-4.567891869112326,-1.9052085285834022,-7.3321083648281755,-14.106252331050507,-4.110877584803951,-9.04345974186506,g
-6.823767686925345,5.778573591165662,-3.9609245417014995,-1.2668838324118394,-7.393370135731869,-15.902263485582386,-5.692801074528021,-9.959282713139602,g
-4.627722283255859,6.12636251093881,-2.625112015387471,-0.5465443502140721,-7.092210751048894,-17.005153265337665,-6.500618474744651,-10.660653293403369,g
-1.9053284276474265,7.203640134895577,-0.4326486920081072,0.37775170491116955,-6.610346099645985,-17.202782743891525,-6.367684297742214,-11.021313201477392,g
1.2235783679736696,9.108263018959368,2.6026483775337192,1.6323639308349918,-5.68772692938739,-16.358756206242436,-5.156799466474924,-10.889165128203512,g
4.468917923823229,11.655225480683702,6.2009868206761185,3.2120481121941244,-4.228407804136897,-14.570432175240807,-2.9036993999228202,-10.179556256749326,g
7.4532406754615605,14.538415186323807,9.939171010394794,4.968820152998105,-2.444008799528187,-12.135782357373236,0.16508149539709294,-8.921666069788893,g
9.883850479865561,17.626538615782067,13.487654975768919,6.723827149606497,-0.3521649262741898,-9.386091598692024,3.7526891081377785,-7.207626574910991,g
11.662978016802231,20.81373793372843,16.713717507936543,8.395482644214024,2.3428246656439358,-6.568317937183875,7.596878055660824,-5.113901482318988,g
13.555206412816124,25.936028015848343,22.04865129115687,11.693681821925264,9.2429156653637,-1.4328477862927063,15.054393617252355,-0.09729421493346954,g
13.783914070693777,27.266980895966128,23.928418638874355,13.360531630864395,12.539411340038757,0.4686572848830567,18.04670463579118,2.4900354487088823,g
13.51385189078828,27.843316482425593,25.050748076027766,14.87291010852716,15.488914091064895,1.595042051328033,20.1189026506185,4.840889709079393,g
13.51385189078828,27.843316482425585,25.050748076027766,14.87291010852716,15.488914091064895,1.5950420513280332,20.1189026506185,4.840889709079392,g
12.81452489796877,27.763419601211275,25.38455672981953,16.07887017278553,18.057473676864973,1.8088546192899035,21.103296301852463,6.851103246925814,g
11.953198655355383,27.151543843479082,25.15776516784076,16.975460933654375,19.99433033887942,1.2106898008269789,21.07574937966936,8.558788172189985,g
11.292713743698194,26.380334645308324,24.750091876180463,17.696591457390138,21.14029096942788,0.09414727305603365,20.316459849171846,10.043612382790844,g
11.023530809005246,25.85638526647088,24.37932785067219,18.328386739576,21.664905801421067,-1.2874763320662868,19.1095145587535,11.274475733899886,g
10.968355511734387,25.538127557608277,23.864220754872708,18.731825180825414,21.6933284963243,-2.924893868891209,17.529824668999872,12.029923860498393,g
10.66692733911822,24.976790174735047,22.746443448671187,18.568411491058,21.016598083658458,-4.992670039412662,15.440710037981157,11.984535617696364,g
9.699364844306308,23.904204314566414,20.698178318791346,17.54112395022769,19.523404743025548,-7.572576149636866,12.734751659943639,10.941792146590412,b
7.9919659332809605,22.517847419263795,17.837473828845063,15.660527055923485,17.637044248278563,-10.451039317836807,9.579945848985533,9.043230742609893,b
5.873231194013476,21.14693166111683,14.685535140363006,13.313236332471698,15.911546390041465,-13.18680862373164,6.424519219465249,6.754539062822005,b
3.862298240832465,19.94611106432063,11.856282893650237,11.072033894274785,14.389022504611052,-15.357105934958437,3.779055506760767,4.619890163556901,b
2.3673474132739925,19.00304745502526,9.747824090560055,9.39424545249458,12.760390496321758,-16.759021097570077,1.991810985953634,3.0025667869284085,b
1.5008753300583482,18.40385343417741,8.410723499150492,8.425785362719319,10.993442095171414,-17.4483392137664,1.1607302931559134,2.0145053585691928,b
1.1026882041400126,17.993646311581106,7.618154897813321,8.019230480421191,9.365540272091065,-17.6428706016644,1.1625552630152824,1.6109351663575744,b
0.9161992925623805,17.345693755789895,7.0770379274210145,7.907011497793721,7.9966066885127045,-17.5724891510862,1.740001060329157,1.6944913068772027,b
0.7838500530113681,16.212545833859952,6.645572821459697,7.888036258893182,6.821158396383734,-17.363647811511594,2.6187417851643744,2.160216264184244,b
0.7417505604014553,14.828793951751265,6.398498087211828,7.918478008383765,5.970056660465588,-17.02250054502074,3.606205983664155,2.920655590338161,b
0.9771107903551275,13.57603981782692,6.510447230967652,8.083372373141378,5.6891933632954235,-16.495269689189158,4.6153265455730255,3.9289706060991763,b
1.7019583776521892,12.552508390301975,7.104743287680454,8.499380985459535,5.848847656365239,-15.70825075033309,5.634062388642372,5.175719880100882,b
3.0270073312005668,11.694799297524858,8.204333552484862,9.223764494731968,6.016646356024029,-14.546211716287559,6.710584798975676,6.66981258983323,b
4.88485464352403,11.10973158630494,9.74689023543314,10.213684350506878,6.134717915394598,-12.853519638345428,7.943750192955759,8.43046427024736,b
7.012681084536285,10.971646184537674,11.563751691013287,11.329347946145225,6.688936999381573,-10.53404399365136,9.40128759365538,10.457705528361691,b
9.000345062602163,11.193309756040623,13.348921751187282,12.357468241155084,8.02992781196695,-7.674133603713981,10.986562420602137,12.64456657511701,b
10.406574614614692,11.46306388973422,14.718910736165338,13.053798058035062,9.874279543967896,-4.54526933874736,12.401010743860054,14.705388790894892,b
10.909014994235132,11.512554412621768,15.355832037902209,13.215043124868497,11.601581785371183,-1.464867151581155,13.282839298429451,16.245029843789446,b
10.415985977887704,11.103187951276473,15.123305180280965,12.76014271276328,12.65725100035174,1.3693083809138835,13.416428417954014,16.95516199497543,b
9.080283507517947,9.906742134576689,14.098378380290637,11.766728187838343,12.543935387942556,3.9621568982989146,12.85076804339458,16.768513986368056,b
7.212216463896875,7.791920222114922,12.541191468196597,10.426059036855913,10.95487678012294,6.489954531030243,11.870738964549153,15.847578748828075,b
5.14287924440536,5.221910988931911,10.802025786940957,8.942243174358087,8.298646573966789,9.164107102312006,10.854934405593774,14.454333095391718,b
3.108768642831445,2.9946499759426484,9.158887084450722,7.445242922967883,5.710067959225453,12.044972437765045,10.074301948831213,12.81627013284772,b
1.2114749739461281,1.4716116458546975,7.679922637502091,5.970638649948084,4.069232697076323,14.936941641479383,9.531532717757013,11.049336935784986,b
-0.5391412131395903,0.2919763528551865,6.25148784938648,4.507612279207149,3.1730047235976295,17.481154977540463,8.981391646950524,9.161649670361223,b
-2.1356929473756514,-1.1060572790616452,4.76800234367777,3.0794214326575218,2.1987632109401885,19.397242359405862,8.163373456596986,7.156743818319242,b
-3.49058091429477,-2.9177122471176395,3.313169184268296,1.8114480129270951,0.7770603219955945,20.680735555368972,7.070287323939555,5.183456263291587,b
-4.400549622505205,-4.916937473709863,2.190243951648024,0.9443227799985074,-0.7168842362041717,21.60981196088476,6.020118156533312,3.589381944397167,b
-4.586287593143173,-6.6183106594028756,1.8041369184459235,0.7640482358879328,-1.6642252999810065,22.575582743249562,5.477118016001134,2.7897461661746648,b
-3.8158909776586674,-7.396718678759491,2.4638281150977432,1.464778903069583,-1.5468512978913553,23.84672917211767,5.7703350408492335,3.0436026889735097,b
-2.069778142309444,-6.830784203000486,4.175806103287807,3.016359576768159,-0.007621973860154263,25.390610762374337,6.89350861812508,4.31332275569787,b
0.35361267720818806,-5.216156347702677,6.545228707881836,5.122616759261068,2.847891169453922,26.86084821219783,8.487818285286096,6.280498387853422,b
