Fz,FC1,FC2,C3,Cz,C4,CPz,Pz,Inst
0.8183743394992927,-6.7842099553064825,-8.850555867378263,-5.818496916551039,-11.051345544034385,1.4856435423216803,-3.510212623906696,1.1334191624779222,g
2.0834702770245577,-4.523328411799694,-5.085137890219549,-4.273349667681624,-10.644378713208894,1.666343099089658,-2.6962334793401674,2.7116922898890694,g
3.612488510133891,-1.7917932599636146,-2.9003809241671474,-2.4857523101146564,-9.447965639191674,2.2691807215939854,-2.0165862990237646,3.954847402530086,g
4.966426249570116,1.0259376735639765,1.1274767210658534,-0.7245717559056275,-9.827942428131944,2.7243904623421686,-1.8025270982989745,4.601912096112394,g
5.7948934222802,3.326730831857554,4.487454453257568,2.1200303135860374,-9.821994906906252,2.6694460265746747,-2.1437963764571815,4.671536820151064,g
7.917027018870426,4.829896235257134,7.113305327456518,4.244230620181276,-9.591518531036794,2.1895808269095762,-2.7512737871363013,4.485075379951964,g
9.401397742299585,5.722365340063416,9.246759424100215,5.885327924778943,-9.004277711501228,1.7289542499252053,-3.0750743656137836,4.525042233474254,g
8.216503514998795,6.190018562428564,11.097321194300802,7.300775560974633,-5.952521841258695,1.7224809858141235,-2.6457463954484455,5.183756746449859,g
6.460400190311832,6.132071268523387,12.584032319223747,8.563921082928465,-3.2842567143572188,2.2638410097563635,-1.3464513346587017,6.562100719706825,g
6.493714948080855,5.437636718238986,13.369717947001746,7.536477916128392,-1.4841102682161593,3.0660305392356313,0.6006243148837827,6.000439679785202,g
6.493059606759322,4.204851991994998,13.100868725494214,7.570308275316111,-0.19003764765275744,3.695811421629665,0.4729122542322308,4.951453951302531,g
8.249767198754526,2.539066917294389,11.67087296333752,7.558652562499766,1.2890759650657626,3.886939797614019,0.16687162665955885,3.719346298028511,g
9.131109920235978,0.47161706328440667,11.42942024424165,8.824612794475838,2.997887336846148,3.732784736646906,0.02590001117322547,2.7411252042551686,g
9.463646367577104,-1.7172061508404426,8.965306003515973,9.602087445301901,4.526779742122765,3.619987507238238,2.186453127934466,2.3654794175550884,g
9.850712792082719,-3.4213163639643285,7.033637153454035,8.835466707253568,5.752203064518945,3.90221394079846,4.4290611012652805,4.399235087237318,g
8.870497257188408,-4.2499010089387275,5.970454690815414,8.531375399179975,6.609269612605294,4.543724580502892,6.627204395323422,6.448787558436503,g
8.729818535269484,-4.427929685322739,5.611835536379489,8.630312679862719,6.5016560053603785,5.060402742545193,8.358129998198189,8.186520904757932,g
8.769284266565972,-4.397749019079075,5.589667859256637,8.919058124388485,4.909195474865855,4.839277225195061,9.140358390753171,9.222068469129038,g
8.834623871799309,-4.235168542850545,5.7302018730993245,7.351955055408935,2.4863578445586034,3.5508718571473272,8.77858452120808,9.346689711551969,g
8.915088713389988,-3.732645244548757,6.178745537244017,7.371990503178603,0.644983379204318,1.3159929376824544,7.488673097401824,11.11505165149578,g
9.016841245730564,-2.8319909035434,5.129322863986722,7.4079952313926345,-0.015020408102747008,-1.4244357568517818,8.120348043864235,11.05207264841351,g
7.348811745112056,-1.6160711689178249,4.703014967534882,7.473939376941985,-0.0777165903244729,-4.154376554499153,9.014062945894388,10.986701493979837,g
6.542132065535202,-0.027233646054815885,4.978422809041217,6.261292341691535,-0.10699945033031817,-6.488815452757031,10.112710895778891,10.93532900055998,g
6.266788402268741,2.010687535332513,5.690473022248994,5.5480644611044285,0.04222985797703131,-8.28777496739183,9.496946357467268,10.910312176954339,g
5.914130037121955,4.246347199572055,6.367204002849473,5.0765756732000655,0.5576148519235427,-9.64324380445671,9.352801252266918,11.006932691395754,g
6.938841664306312,6.225985474843016,8.507455888884785,4.518459747174598,1.2260566152193566,-10.747373495636854,9.414771024597467,11.430610827926559,g
6.688804486552899,7.729664319599523,9.675924927783369,5.250856394826114,2.003068957899324,-11.75878092873162,9.47214782980087,11.881631680454749,g
7.919219229294424,9.117205422664714,8.523272002124099,5.8287663481056065,4.741306138750848,-13.893868669584288,9.178486450493914,11.46451156985972,g
7.176795699619953,8.487682844087725,5.996905402077812,5.7363998039139625,5.692248688498613,-15.160265442869676,8.61809783942298,10.031788981261851,g
5.584831275743958,6.879064451049535,4.384660370810304,4.879554864937603,5.405790702016374,-16.556264481669494,7.66674806553353,9.741297319875974,g
5.584831275743957,6.879064451049537,4.384660370810303,4.879554864937603,5.405790702016374,-16.556264481669494,7.666748065533528,9.741297319875974,g
3.457042475523413,4.745947371375498,2.1795694291773247,3.4503558886614414,4.146693796759136,-17.992724643590428,6.37811815357681,8.900410430673556,g
1.259552205304524,2.4912425443017314,1.7089056532591527,1.7880908603341397,2.335656172727785,-19.38242514241734,4.92246875206237,7.803395130400121,g
-0.5301293239280105,0.19921596263932476,-0.43204096885455856,0.28109701591143393,-0.2340044400099231,-20.658669314571913,3.547547103376098,6.8429228604545,g
-1.5925182981682027,-2.056438486279601,-2.039835685196626,-0.7686078685689279,-3.7441181314498957,-21.739668530659976,2.5449164572077105,4.525081953813645,g
-3.9257572038377866,-4.026755227066548,-4.956659073000478,-1.2611584360204184,-7.501259564183442,-22.54861358884523,2.137186174953192,2.8715672973310515,g
-5.434469446473459,-5.6078129587324685,-7.1112159562841395,-2.961434298067492,-10.549504219218443,-23.09754740471828,2.307728377082113,1.8158163164460883,g
-6.334822031922236,-7.009353309711,-8.66519933612538,-4.135043717616023,-12.774219917613594,-23.496199914251967,2.7853293865053628,1.2331073459917044,g
-6.691190127550001,-8.337641577688604,-9.643118994572625,-4.740000785691243,-14.652721501963475,-23.830859834136156,3.2813369940731683,1.1081572094352743,g
-6.364277454942003,-9.262129135465248,-9.835487176378175,-4.6143059210592465,-16.239923533213034,-24.05789144620085,3.745247521337079,1.609666338288429,g
-5.13575584199032,-9.361427115276197,-8.970057018191763,-3.5902568001414004,-17.211506903783917,-24.05282522296795,4.3504681760904145,2.959212617654506,g
-2.924032315623587,-8.59133850252459,-6.967270861524713,-1.6711395703199525,-17.665844049873787,-23.758760497667442,5.2417770744073975,5.169572888296573,g
0.07350452079890246,-7.161672464144158,-5.94702285003243,0.8551013488544099,-17.985116912272893,-23.27887681971697,6.320044632350669,7.876808727125335,g
3.4215461459816248,-5.174952358981586,-2.495727372598209,3.470585941271511,-17.965080692276366,-22.846361251261584,7.23762326900687,10.426372538707263,g
4.4759525746525,-2.6902301639370667,-0.9211453621997141,5.643966340622634,-16.94839689767793,-22.70373811741867,7.571542565185121,12.165350299180023,g
4.869053330405963,0.049093464985848725,0.11002021267066135,7.075815101343808,-14.888130503215015,-22.952084958381622,7.0710142171783215,12.74315570914027,g
4.860988194435947,2.8082862993827424,0.7896323634307906,7.809929942488199,-12.49639487374392,-23.46703783137665,5.850041006080659,12.233454586175405,g
4.848999956488067,5.664782071213329,1.4453137623506318,8.150782084717715,-10.251947606123371,-23.984333764463212,4.3608527095635905,11.021173032690221,g
5.112194992389847,8.76933806095942,2.285469114535001,8.475223449197093,-8.059561694089322,-24.31265583054251,3.1144549546087203,9.560403193821527,g
5.6291637579852365,11.882328238643336,5.087719020849834,9.08259619730143,-6.026880394183972,-24.45915880974938,2.3876950141978392,8.194673503112316,g
6.096837937525344,14.500212808176105,5.810342124486883,10.148734978178819,-4.683194833159705,-24.53245051206012,2.1970516715267077,7.15068914482148,g
6.121706083130564,16.397243179728683,5.97346994786278,9.604810297641437,-4.0708812218335995,-24.57007890184679,2.495240977098951,6.625202959296101,g
5.432209284737342,17.67577010073041,5.382016405344291,8.719347150288499,-3.4213727917358483,-24.52786172344333,3.292717403275277,6.796114686167738,g
3.9786985954545058,18.294056305608347,4.034133501563964,7.612518909088424,-2.217289039938588,-24.424572882368444,2.55819047735825,5.251125791132447,g
4.073760279220786,17.95995377754618,4.035909778418454,6.505333122073699,-0.9128034137935709,-24.416359493705382,2.1248324358177504,4.070390206792287,g
4.039529318246208,16.59724912785739,3.9892158884095457,5.590076200430806,-0.11749442121718019,-24.688851622045394,3.9483820697048726,3.446304620715543,g
5.574554268267984,14.570993139711339,5.125997626385089,4.939706807679938,0.2735378920306165,-25.301788518025525,5.7383400707574825,3.407685866524145,g
6.139716283263969,12.31833607494174,5.687404915854216,6.027188271282891,0.5603459198615393,-26.155319689960862,7.283226428462717,5.647990511000617,g
6.218327728143936,10.047761677065512,5.977612838257359,6.751868998943446,0.4721667847170445,-23.632693921311617,8.314347909011165,7.842310735209532,g
6.192765512177993,7.892650573481089,4.335050970489713,6.9342616272232975,-0.3775305040116553,-21.062650023174477,8.514628226563632,9.658652271205105,g
6.180619217845681,5.994016501113192,4.495679181710408,6.17695482764628,-1.7611378266641402,-18.638049699816943,7.56788491140716,10.548770244925127,g
6.064040572875866,4.241945126898349,4.458692204431069,6.208382275389172,-3.3002114057931182,-16.572117049203953,5.228900124836479,9.932456367998785,g
5.664390257758574,2.284901259295343,4.0666012171628765,5.6081311375008,-2.7093457544399113,-14.957029427596561,3.2765337797834846,7.521226313821328,g
4.934922283741073,0.08289575133301189,3.3040092212529792,4.454226942513354,-2.6719484764287236,-13.628371627659698,2.8323387936117905,6.048168313859619,g
4.044195376083753,-1.797980173572863,2.3579556336541243,2.998924080365729,-3.19136414437409,-12.201758504397072,2.3647015300995284,4.0876592072553,g
3.3016596327299697,-2.730925483181155,1.5076415345610166,1.5631530134646903,-5.638207545686633,-10.294190071838326,0.132471669005702,2.1580477671974876,g
1.2742060594382842,-2.686855229880206,-0.2953147511468024,0.3804132683084568,-7.246901735831206,-7.743338928880308,-3.1734282273169883,0.69308266951489,g
0.5726567597796837,-2.1185009864093964,-1.3206439413272641,-2.0649647518515084,-8.531495484327653,-4.647477306702422,-5.2011482969508505,-1.9670045058001537,g
0.544089328221821,-1.422781918194977,-2.0855028638410005,-4.05607660634686,-9.705225327512819,-4.696101807889157,-6.146141159504476,-3.874268592887978,g
0.4827001465117533,-0.8145831769131748,-3.077602152381688,-5.98899417173762,-10.476348273516006,-4.694157254828055,-6.261313451122154,-5.303627876650763,g
-0.039655158009030786,-0.5019855815248396,-4.5290261169599235,-7.992134820366481,-10.861455115605299,-4.648736029156482,-5.6771944120120095,-6.303318205798338,g
-1.0562047114849764,-0.5676439021160088,-6.32759120484634,-9.891760734594829,-8.721608097086198,-4.5669305125117985,-4.3389958936070325,-6.667298809430619,g
-2.335347171336838,-0.7580916682734836,-8.129738463444703,-11.384533102135968,-8.704550110890064,-4.455833086531368,-3.9055390931186467,-6.131673534594421,g
-4.95938250393703,-0.7868364012164222,-10.905531416556572,-12.630659141425093,-10.279340712107496,-4.174132033112712,-1.9705741960654186,-2.5482632518904706,g
-6.499397884005724,-1.3152670349998152,-12.189053830917812,-12.75853849364119,-9.667482740337734,-6.966979462124361,-0.7479338419950528,-0.4614160069772864,g
-8.573228873555388,-2.6799517448035886,-13.830329476148956,-13.051214268019365,-10.287863758017648,-9.688956676782999,1.7906967029590242,0.9502893362704634,g
-8.573228873555388,-2.679951744803588,-13.830329476148956,-13.051214268019365,-10.287863758017648,-9.688956676782999,1.7906967029590242,0.9502893362704633,g
-9.0830018385933,-4.809777925837824,-13.818708531638999,-13.760454733010175,-12.139925010680301,-9.553030463336672,2.939924703606579,1.2805991189590011,g
-9.82908099356658,-7.566665190900077,-13.8033095411456,-14.848430232686912,-11.61623437368253,-9.452966045879386,2.6077427486298856,0.49392480157411606,g
-10.471896621515274,-8.243555062093822,-13.496840181004234,-14.164896681095081,-10.570292110148397,-9.401470964818852,1.0018290832567394,-1.1787945420913246,g
-10.681433569323946,-8.587637824296413,-12.680806869379705,-13.0954416643554,-8.901872125792218,-9.407240137753394,0.7714253556773156,-1.5122242186329717,g
-10.2838377206812,-8.468617125644995,-11.324280837170946,-11.641872190194784,-9.087456513072175,-9.474955859471947,0.4185758087388578,-1.8440908043009734,g
-9.305976025801158,-7.989658311497079,-9.600532441695762,-9.988583119467311,-9.26235577134051,-9.605287801954065,-0.14089371803149503,-2.2341750148630477,g
-7.904769334042021,-9.544200547893121,-7.758200067099094,-8.382361783388792,-9.440013719083165,-9.794893014369913,-1.0241353539095328,-2.770723121509685,g
-7.972605159675675,-10.706086479382746,-7.501684374626445,-8.497301972490009,-7.93921582470104,-10.036415923080273,-2.208564399431123,-3.448298662676231,g
-7.275313243311517,-11.230355555174652,-6.5825963806651275,-8.532847194644235,-6.995229084981714,-7.3692220384613965,-3.4538139149995972,-4.114945108637139,g
-5.64306830725318,-10.772105583917881,-4.702903898361126,-8.198482336319657,-8.094442936211658,-4.797144665997151,-4.3747017940382085,-4.516964399256603,g
-5.289064774562813,-9.307621526929314,-3.9370541600660856,-7.279423687487389,-7.5818490540950645,-5.094915959009482,-5.780457257772154,-4.403277249888548,g
-4.526840592738993,-7.025773642635829,-2.7845849491308163,-5.853898207103887,-8.759389955465348,-5.352457010164981,-5.611382502035175,-4.894175313033154,g
-3.798810253616908,-6.667324160367334,-1.7060626767182625,-6.145392995996021,-9.773769281051496,-5.536733973007159,-4.056726669008567,-4.310084129461607,g
-3.4759358524960278,-6.340988144915714,-1.0283055641349126,-6.832166915789545,-10.525243169306394,-5.614713001079526,-3.685158971609698,-4.885346281759314,g
-3.667439323876674,-6.026480157171282,-0.7975584019053098,-7.895218177602928,-10.899767944386932,-5.55336024792559,-2.8674462637360905,-5.1817764360630765,g
-4.197886104710004,-5.652803127877064,-0.7856967719869516,-9.033972956721556,-10.945424930750649,-7.758307164565617,-1.3992805647441924,-4.9446215310919595,g
-4.779769156834244,-2.9304693125271597,-0.6653414392165781,-9.861858314958784,-10.568992056230297,-8.343579717162728,0.8943418244882949,-3.9025075407410883,g
-3.529794334208092,-0.320683902319827,1.294582463549101,-8.650025702457096,-9.519744469698384,-7.291195314656174,1.45392268236377,-2.0065968368267404,g
-2.8670243727438467,1.84908411882761,2.7594058777758415,-7.26318125549699,-7.897668953804924,-4.946786266503341,2.0278686722984713,-1.5434203496662406,g
-3.2217255160554883,3.0142310474522604,3.278727502606773,-6.098036225333866,-3.9512575197153135,-1.865986927425307,2.582402719161377,-1.0894210722212831,g
-4.829592302587982,3.0151174915207166,2.6911908221877834,-5.413385655626731,-1.1461540514200603,1.4377688125815635,4.278496166969566,-0.6774261624537028,g
-7.459057502633351,2.167883277144019,1.3197309970195699,-5.09268478822095,1.0031600868718542,4.6440522222713,5.2841391145642636,2.8107529190834684,g
-8.159573615503785,0.7575864077058562,-0.22449613223274073,-4.7259013068877795,3.0059630683244314,7.594202399221973,5.822435589046238,5.635968430197265,g
-8.450542331406044,-1.1929604927792166,-1.4116029903093408,-3.9507255514988473,4.648844561279885,10.165426331787895,6.000998738344198,8.013319104843744,g
-8.208141333990973,-3.7004686461369625,-2.074040432407556,-2.776668292334472,5.583431749058495,12.174401294027348,5.718470516139455,9.755452169101599,g
-9.315564226818863,-4.1034851889462205,-2.4691765859922072,-1.6247390670642239,5.868374634820274,15.806154812852657,6.213667851793805,10.338383577195003,g
-9.957841700349183,-4.818141413647912,-3.075053969974138,-1.0436066494361753,5.43569053182991,16.96404784169512,4.934819136109885,9.269744257136091,g
-10.403645053899394,-5.94670893755484,-4.194853922291176,-1.3192424718648084,3.7614568508818733,15.568350081537655,4.409497954020431,6.486780470680772,g
-10.629112787825324,-7.245762316058924,-5.651740086223472,-2.2659474352568716,0.7376523326679905,12.161900719823603,3.13232897234703,4.536824970282989,g
-10.308519050084671,-8.218568413919591,-6.85723791079251,-3.3320562839808217,-2.6742391145437905,7.733300210803074,1.5854126689384762,2.464073919948804,g
-9.035445359746934,-8.507176918008124,-7.1994095292487135,-3.9237089025785687,-5.330299188339414,3.3004606783906167,0.2541721851279159,0.7981059310556713,g
-6.601926852718558,-10.411051242709185,-6.3998390509094305,-3.7212212457937577,-7.014784684783811,-0.4264687901429077,-0.5681847558440111,-1.9764608532153751,g
-5.463556943259242,-10.77764937340095,-4.59392625940928,-2.797490520299478,-8.069516821267074,-3.0965728774512065,-0.8261011382633525,-3.7214469340533376,g
-3.85783036808375,-9.697604065900851,-2.1902155859172803,-1.496457266186223,-8.434673274505702,-4.556339924263253,-0.5984745551866253,-4.623864053203105,g
-2.113962278984498,-7.390012947256283,0.33919686907096613,-0.1886327716396007,-7.848580192111983,-4.670017653441385,0.0334481420434134,-4.851191065443697,g
1.063134067854255,-6.975180354626788,2.6643355326967786,0.9167397054086429,-6.619372081754591,-3.247248215287043,-0.4263558935653866,-4.44112613342329,g
3.1973772118905184,-6.592026295257239,4.71903370836977,1.7989175781163447,-5.299054375095189,-0.11455994169640196,0.42586172239658887,-3.3489209604041106,g
4.183857071741093,-6.3695783192538515,6.621733990309425,2.5270140509337926,-3.7538555698878553,1.1940237058617718,2.6782813906251364,-1.5678594669460193,g
4.0870934329025745,-6.254746633544983,8.432646445699582,3.1459430875444734,-1.3954913978992036,3.2980961094863277,3.870792151503737,0.7777650720895462,g
3.0140768551895696,-6.23737551089366,9.989066623924993,3.62654535415854,1.7403256822902837,5.735778841866931,5.327669909721737,3.431550995105801,g
1.022287238756587,-6.354869032489276,10.980712914102778,3.886559551341589,4.947544691762378,7.970909054032501,6.5723705389821685,6.094457430914509,g
0.4456937955818864,-4.204529209732999,11.142523671142998,3.845688782562904,7.825920595399343,9.579309487633635,7.320329322743854,8.530492359848491,g
-2.4658445666302713,-2.688163704362773,8.703128410884961,2.813687507557355,12.50998900347699,10.156750081088173,7.271639884799934,8.174156156325408,g
-4.349403016369848,-3.5908702538858357,6.39778585116547,1.9676109229703396,13.327546863965456,9.059866801113273,6.651242079208979,7.403480299844057,g
-5.989938962896959,-5.414185468803478,3.8480125495292987,1.0916666806695212,12.91991098582875,10.15105810483125,5.6808135125507295,8.07864361164594,g
-5.989938962896959,-5.414185468803478,3.8480125495292987,1.0916666806695212,12.91991098582875,10.15105810483125,5.6808135125507295,8.07864361164594,g
-7.002296688501713,-7.523442854516524,1.5053777193756617,0.3856023241868102,12.332486265769592,9.771281801855922,5.881475700687398,8.33432460103116,g
-7.1480326838027874,-9.377618566202099,-0.2625383047750658,0.06944740664984264,12.423555600207404,11.552394009091104,5.148852984779948,8.272845495577574,g
-8.058658016782905,-10.721854111283838,-1.2159169556199712,0.3115238450884661,13.010202664837507,12.84756680090554,5.921227223044473,7.969302790705385,g
-7.035238034454084,-11.376535577202219,-1.2374254207723765,1.1248291813451072,13.566663807855132,13.926019508970345,6.652087473881859,7.414825135510893,g
-4.4630977439158075,-11.262088300998167,-0.38227715971126675,2.3138478143315853,14.033125967205725,15.017403922337769,7.506950556611966,6.521240193044616,g
-3.312115201936917,-10.690505852717024,1.0862100059204889,3.55251501510696,14.458525029628948,16.21763526115107,8.518479852827003,5.210283393722007,g
-2.1552468255282133,-10.21586037217949,2.8220594099046834,4.57177611131189,14.576976942702524,17.500438708039926,9.626896498075137,5.509090378743918,g
-1.4031429663926858,-10.017098266024657,4.606618351979342,5.320383660800997,14.403307896720818,18.822353628167047,10.784577917841055,5.913478919876901,g
-1.1980653273939783,-9.722357296604779,6.399679806941083,5.967208802573852,14.67217095046916,20.210533318011013,12.012895716347922,6.528622270948605,g
-1.4509775637673326,-8.977354233875971,8.188938671642896,6.746619409892618,15.959706052493749,18.677469337753827,13.362147915115717,5.981177354394674,g
-1.9532319975164527,-7.883768150275586,9.85527850979511,7.771234261777353,17.797381791524185,18.053987175646302,13.28179007227924,6.335110863215717,g
-2.4872197139479915,-6.742216283266643,11.18714875951299,8.935075721406722,19.342780232497226,18.438714103933698,13.815463143611916,7.4788081430817686,g
-1.2321263093803545,-5.723561094760823,11.943114167193462,9.945071438680452,20.50151806480049,19.71013169604762,14.747264034445791,9.141776433071588,g
-0.9925770755375065,-5.02765455994499,11.885194276062407,10.450735365608892,19.13578522684994,21.475093023010167,13.954665565015919,10.977245557585757,g
-1.6936807856828693,-5.019931004988095,10.86953053726384,10.212263430502166,17.426213484782334,23.16882614601379,14.822451484738815,12.625947732036767,g
-3.025354848541042,-5.846875042864344,9.008315101080218,9.2266412142929,17.10605566923983,24.325254450520394,15.282928067991488,13.804538857362516,g
-4.51375757647625,-7.106244823203738,6.714634551881753,7.736399940407052,15.644988441443697,24.810046908037236,15.315001794900184,14.396772074072667,g
-5.692410250558943,-8.216230099990579,4.516603285734183,6.111166447268801,13.767185585442533,24.80964161414993,15.057306872288581,14.472175244944058,g
-6.271177373339652,-8.973403327070665,2.813393240035558,4.679756688708036,12.02302991815527,24.617289768341028,14.671593337202665,14.213261671269226,g
-6.198846102273483,-9.494860080360862,1.7893501663056903,3.6166594841648987,10.528727856749246,24.4118668057659,14.274808479799002,13.808232974597408,g
-5.612304274849882,-9.826095600389786,1.4595729355175626,2.93377693770119,9.58196757933535,24.15045439606061,13.943662484964808,13.36664454182792,g
-4.733577013682819,-9.965179254619354,1.7138557464151571,2.559291742306577,9.569506162292868,23.60159392557369,13.68772615051444,12.88955269003661,g
-3.758054107286186,-10.110433812573936,2.3765427280182023,2.4515703090709016,7.459381020364033,22.533163511909855,13.425108580745455,12.326702703642866,g
-2.7547417897916286,-10.436128926556389,3.3503596173762213,2.688850350278151,7.449850585933413,20.981492909050942,14.92456066188846,11.716363453441483,g
-1.6246833472322642,-10.631773164721908,4.732556490589608,3.478095373683542,9.205893122108364,19.369277699143687,14.567435450295033,11.297389297513789,g
-0.16763639438263925,-10.05292318979048,6.732917776203197,3.2698629385440725,8.87435874889782,18.28972249518693,14.413616742220947,11.445914627847655,g
1.765724921498564,-8.396155896360304,7.228841036711991,3.54274056741464,10.135978227553291,18.09938152643022,14.62251122524253,12.43689453234091,g
4.136787839635794,-5.949673016487447,7.946354593242923,4.1649661358639065,10.285731730546752,18.68468470669535,15.153801733267244,11.983984496109374,g
6.687888611513903,-3.1968117023746765,8.627644742250947,4.880422816050747,10.558777492813624,19.591860252259373,15.817564461114989,11.702434961184165,g
9.032446807918278,-0.5172181357127993,9.042622813998426,5.439047340449178,10.509170677796979,20.36982282520254,16.416353222123185,11.321897506339145,g
10.820823692539168,1.7294846966715678,9.038428406371448,5.6837702325031945,9.759555748610094,20.862029821696304,16.84786619133608,10.691417884854125,g
11.901947589795094,3.2901982794443514,8.559022859777901,5.553955675639793,8.017030975190272,21.30149791537624,17.17770880351407,9.807242211122112,g
12.374799739322995,4.372448425541609,7.650947619086662,5.042020697315131,8.180730414691713,22.17729816636264,15.702471584206325,8.759133273807974,g
12.458464189444609,5.540601563406546,6.412193276880681,4.149583264248345,8.35106380491995,23.91827035012728,14.222766737889762,7.633542954792738,g
12.249402739156974,6.9959269013974295,4.895092775926594,2.857494960743216,6.739830593751128,22.67634257511606,12.815754888672576,6.421587551686838,g
11.57107223934568,8.194436044214537,3.0556695774381395,2.901648638561835,5.481840288281979,21.370705113395253,11.461347083216175,4.996420204056623,g
10.076647728753212,8.38246153058108,3.024939142660419,4.468608220502718,3.6995775738010233,19.791949188257245,10.081723766846487,3.193898959536924,g
7.542746607191314,7.294449860080087,4.099815229100757,5.261965729041096,3.672187187013763,17.889675182694397,8.622855471614589,3.1833524592727427,g
4.107495793233871,5.170101339522105,4.256986025350461,5.236102521410694,4.940524732019917,19.200573426781055,7.0841596093886094,4.557350216928116,g
0.2450535993143122,2.3913938971178696,3.6130705861719066,4.575491567410885,5.232725697563185,19.518025677778773,7.036911891237795,5.115275449810473,g
-3.507222984839449,-0.6335559999482249,2.3747648066787987,3.5515518422823553,4.843931229583378,18.97851479278897,6.320756551464732,5.07462945587341,g
-9.72982575284764,-6.106230383401447,-0.9664511886928622,1.1916961757185955,3.350643387381543,15.755380206299657,5.200130485887189,3.865343442589976,g
-12.221964697232357,-8.688753172119764,-2.5612278336986916,0.1303447905984215,2.546319399672128,13.083770477683476,5.278996076352922,2.9922979008374084,g
-14.157747920728884,-11.349437196070696,-3.6864691959591838,-0.6028512855364869,1.4756167320490872,13.692283653181306,5.45410873326255,2.2306898324921485,g
-14.157747920728884,-11.349437196070696,-3.6864691959591838,-0.6028512855364869,1.4756167320490872,13.692283653181306,5.454108733262551,2.230689832492148,g
-15.14604114572513,-13.568042939077282,-4.054250638984947,-0.8037194701669914,0.3516218706389571,14.561182078157907,5.837763533194516,1.8058762833113793,g
-14.8327795496269,-14.60863179524561,-3.6010957384083553,-2.014916075389974,-0.10964226912320951,15.677604465412262,6.39554138903267,1.7848843127323448,g
-13.20961339199145,-14.300406856208161,-3.778417680945813,-2.064378527436008,0.48337303941367293,16.88687392012698,6.9089656277756974,2.024716264349942,g
-10.646067805902751,-13.082563544144213,-2.9412544156925575,-1.1061071699964795,0.24217797136131844,14.581723623646976,7.123931641113559,0.8327383273947143,g
-7.603894018752055,-11.337756155656342,-1.3727969168446712,0.5975517517112265,0.7601771441756977,13.099259898555038,5.463902027857789,0.3817109835688962,g
-4.306892656367697,-9.043414327989774,0.9279949968110779,2.927957938816668,1.7251884341260477,12.583557640991568,4.4035559769347,0.7442562566033359,g
-0.6798497568164714,-6.0752141841939515,4.147967324032319,3.972827901695287,3.400320100918288,13.148781527459786,4.243930146811911,2.2013257214720636,g
3.383729368795147,-2.500442754324154,5.77802036424736,5.075580220482106,6.027932262549558,14.779899418788665,5.155614117383739,2.7851616286535914,g
5.442472578233959,1.4538035256448474,7.292962567462155,6.096982232167435,6.7064887397125,17.245527054770815,5.036638392400887,3.53112603698749,g
7.042501290902569,5.366029870639262,8.355321554127777,6.824508035272297,7.693552896538594,16.602783054967688,4.8272812064295865,4.194572600056187,g
9.711877466932947,8.516292241432089,8.673528577237287,7.033968591638747,8.759332625365486,15.669668939196152,4.398720015118545,4.545251397016712,g
10.777334939438138,10.256560080369463,8.186466285119701,8.172413834011097,9.182629623382146,17.764089686968113,3.7838381423175766,4.51522588232814,g
10.50077553861934,10.704474573841242,8.265007155108176,7.787322688032409,8.578250010721334,19.33016568612365,3.2145682022681923,6.138020494833822,g
9.661451189909199,10.767543372905875,7.791637498789454,6.4930867190944,9.150681223186911,20.733516349412547,4.744035094575296,7.532585890868782,g
9.041003000892925,11.251937438712819,7.546369670615789,4.968670499412825,9.693279502644803,22.305637740693438,4.894206092431014,9.138986256306238,g
8.938518982181838,12.145683415903418,7.6866781792803,3.5337186155773943,10.716433530311551,23.99113686734932,5.133065725894321,8.71076932293802,g
9.06414135903634,12.887769902370902,7.758449778461548,4.018479732135431,11.591779871721766,25.294946383731425,4.946115000063147,7.601776574352343,g
8.849782596760427,13.015714032061897,7.735053218200886,4.736879229573401,11.67153487480936,25.53236337051765,3.9223761819903507,7.632057680968913,g
10.144238226727591,12.342984668454108,9.30135828823967,5.334390739359444,13.814331262653639,24.189840766164544,5.658806411723231,9.16859855685668,g
10.869156817654837,10.865051936043676,10.20797872895462,5.575920741213589,15.554547030347615,24.688335196231368,6.435634907726781,9.860191375258676,g
9.250131787079578,8.883833818048124,10.456733194856488,5.508264595889115,16.24151186477784,24.109503910982884,6.300144508325719,9.80177651131849,g
8.132028894837209,7.031179536257467,10.354999691095822,3.891795962195437,15.722663869726727,19.51834636687962,5.5916698585885625,9.351753368207193,g
7.744039913023052,5.774645423850434,9.198968472676507,3.657125108440519,14.59523719326611,15.176851635053492,4.763139943995188,7.079988661592102,g
7.79408762627487,4.954044036555912,8.760502039204088,4.618440637034521,11.831904744987046,11.3931773621832,2.368205568792441,5.42417837309832,g
7.6387978075252505,4.071106063590542,8.455080487950212,6.143861214120134,9.624110701644458,8.12921858568534,2.022703153357285,4.060994340938576,g
6.669397583934774,2.929409248859936,7.762480882923546,7.4850181280445485,7.605825541742865,5.243820513996704,1.855439356364517,4.79789671437442,g
4.67981081040393,1.732089566552559,6.5379613987741525,8.15376556420895,6.027921106563217,2.738650505200606,1.745557643180895,5.582692395449303,g
2.0276570027501863,0.7376258574466903,7.032875231985514,8.15721986473115,5.033444066821631,0.8747750705560889,1.6944611929184443,6.3021105942794975,g
-0.488770163144161,0.2227059974185007,6.008182941092676,7.967125678171962,4.412881838639845,0.13026682706579368,0.1801082732499429,5.504021069148784,g
-1.9975147617580862,0.6809097982686455,6.11517832713588,8.220915686182108,4.408460162837776,0.9749721119568907,0.1281313573017945,5.86718716979274,g
-1.9986974585859145,2.547104664534087,7.6935789055192245,9.301849355555134,5.86501395230867,3.514941344360602,1.7578619823628423,7.59723925930034,g
-0.6317344541891915,5.59154449680474,7.877793848823157,11.05076716353848,6.378349032293331,7.249072070409776,2.4795296871225974,8.043820083801808,g
1.4343185717149787,8.935315921920814,8.063327555313847,10.871357072501834,7.533116393517591,11.205925254519807,3.337820593439736,8.460827386344025,g
3.4441497094652505,11.816443344440277,7.942793539867706,10.170447927433262,10.507831264993136,14.42988279337411,3.9684458280313115,8.486729360329907,g
5.03455776884133,14.113881510405921,9.360056583130364,10.256713130870342,12.44996924342055,16.458333338906577,5.699504983094272,9.68471939155069,g
6.4035027537187705,16.09311967690224,9.996542066963553,9.69455266409448,13.859971690357629,17.44188527875574,6.780200146274652,10.11180651649843,g
8.04103378704856,17.972355041345185,10.387380909243698,9.212899580113083,15.052243486642258,17.855961862415107,7.774427687272471,10.41060841042822,g
10.214903362944035,19.81506135160921,10.922825520505217,9.362085551245013,16.076327939535087,18.025634832415257,9.015075113730587,11.040238029081408,g
12.60746843681871,21.453026768852737,11.483185662170978,10.07455819223544,14.532090683501162,17.79284103221696,10.275155711769823,11.902998303849934,g
14.42155530447521,22.32224238315877,11.467212574823597,10.715761339287148,12.742785792882383,16.59834228453174,10.862417084366433,12.435159963667765,g
14.9142278308524,21.755605143837762,10.283072843177306,10.602647110013114,12.27309109348625,13.982682429348014,10.142916137654364,12.101734788027269,g
13.934447521222467,19.768702192158553,10.4668959704781,9.565934828658609,12.914240229274816,10.118683357611776,10.299817466950191,13.189352261444341,g
9.862909823739546,15.518076763531354,10.509434285034857,10.596585602958697,11.501792984778017,2.242360918615988,10.034364567813526,15.327416878331956,g
7.933673613001028,14.597713752141217,8.8018098441958,10.022972827870694,11.384342085336787,-0.22298459866750148,8.782874418192483,14.891177784559417,g
6.111712070922842,14.03422727340406,7.600096002836352,9.867362413650024,11.579855226544856,-1.703472843240215,8.084696212273347,14.708159210682311,g
6.111712070922842,14.03422727340406,7.600096002836352,9.867362413650024,11.579855226544856,-1.7034728432402146,8.084696212273347,14.708159210682314,g
4.0698565999283485,13.270022910840533,6.3698424733049865,9.561518222778396,11.135972909945682,-2.739257823042301,7.260495900835063,14.083890022923887,g
1.712272634111543,12.150804091184282,4.792268118877247,8.714088407284606,10.024908867365767,-3.706975032836511,5.857298398132036,12.592274920650855,g
-0.6235565848315581,10.856864593885367,3.0143745702250557,7.438924316778403,11.07162554598879,-4.513315412313894,3.9641396295025837,10.371174510925965,g
-2.374406507841543,9.826521531424337,1.5278668997306037,6.234906265373274,11.952532521885525,-4.698984324070391,2.096103960823818,7.960589700020689,g
-3.168265624997892,9.627802054795184,0.7782285029110545,5.55596646236979,10.693785190358918,-3.8558230771806934,0.7780006772697988,5.868089968988874,g
-3.0899515106708733,10.463660420865162,0.7838109305226922,5.453522419778522,10.113730827929444,-2.0447140740677847,0.11986126311822601,4.220163874047913,g
-2.5836159703735455,11.773215075361431,1.0957550521317325,5.572834287115111,9.771758767082604,0.1299447098519712,-0.28175917086294133,2.753718177191934,g
-2.105174791809362,12.651561382841624,1.162200864625883,5.461552225440386,8.572660503977342,1.8702942482786864,-0.998874578809262,1.124201750044974,g
-1.8435843839729749,12.698290374519408,0.7490963994770248,4.90596796199532,6.137072853921469,2.6605434152283784,-2.278464061153276,-0.7413860740456297,g
-1.7254122475959648,12.19687600009345,0.02089531248910964,4.0388361829556105,3.3463478773695003,2.4758337860159707,-3.8575369997424316,-2.5371833018182484,g
-1.628583486581635,11.530558202733662,-0.7137274859707249,3.184218891192752,1.1488022236060296,1.6264518086517739,-5.212656920616004,-3.778905967579481,g
-1.5696635801753527,10.80667894274087,-1.2707585389929406,2.59731301412759,-0.4852907998114414,0.44971437080107357,-5.948868454124518,-4.122838814782799,g
-1.726969218265483,10.05374558395748,-1.6853514544436634,2.286113732076995,-1.989060797415798,-0.9228319451424823,-6.014889851373679,-3.571470295087623,g
-2.345815549551876,9.315025793527163,-2.1956589538847364,2.0052230807137,-3.3525201391439245,-2.6384830569281794,-5.69525043820491,-2.4748132098358377,g
-3.6285648372302655,8.363363839228338,-3.165822224954834,1.3995816736170508,-4.51670932310071,-5.0146242451020155,-5.452315713931646,-1.3675423052034017,g
-5.648672727049947,6.703855720241623,-4.895420553003271,0.20864821565627745,-5.968864198410085,-8.267085094584553,-5.659027144160553,-0.7264123142949196,g
-8.287406704766777,4.12923741160247,-7.380953073776281,-1.5775011480896672,-8.108802144576451,-12.237224378892774,-6.340812225363773,-0.7594507267966767,g
-9.018997584520926,1.0480213888707113,-8.006372588808961,-3.6934062398744514,-7.8318054910282155,-13.069197680786214,-7.152260529230313,-1.352405543033284,g
-9.389718299600272,-1.911579617042144,-8.252470255137643,-5.719122115860401,-6.987416662914926,-16.621338831655898,-7.649531119188724,-2.211961680863134,g
-9.292476911322405,-4.36842964032007,-8.04905218030108,-7.277399803193982,-7.843904180400566,-19.066607624797157,-7.603522592611837,-3.088808207647189,g
-10.401191830803855,-6.104712005489124,-9.265954112176473,-8.19343109731298,-8.496034397383028,-20.21216963721875,-7.076687025104123,-3.9083441971598716,g
-10.497219790104216,-6.875301383938103,-9.623122519642347,-8.529956299395263,-9.042337862991767,-20.1795694062317,-6.28700988935568,-4.746577022326901,g
-9.807409191535038,-6.6406909588874825,-9.321755879866377,-8.488623151194183,-9.071780181388904,-19.274834422193173,-5.460726997256613,-5.7186686449585435,g
-8.662077428096685,-5.772259563806786,-8.625465497262626,-8.248240061176762,-8.492063379131206,-17.829242824966784,-4.7507806356835385,-6.867521437139937,g
-7.277148795296602,-4.679009184958323,-7.666187003578814,-7.844644835954166,-7.5778470600842285,-16.06579406152641,-4.182505711899165,-8.098457270759315,g
-5.6402267850045265,-3.35183836937684,-6.370098280166732,-7.1640640789829835,-6.266722178172758,-14.07869889523295,-3.6591394130826074,-9.188250830183824,g
-3.5932677736869523,-1.5556661175259552,-4.600357156953511,-6.044100573735096,-4.2792126228906024,-11.941151799481268,-3.079288083397727,-9.876113762121037,g
-3.2406674463052356,0.6802344612219471,-4.5991941273025185,-4.41206288943207,-4.573745243447044,-13.103954357402557,-2.4683983953756186,-9.98741760105457,g
-2.7124754714463144,3.073735440134142,-4.527095013064623,-2.382995241725522,-5.35003690404254,-11.241713489199345,-1.9782184626362487,-9.515286267716231,g
-2.0629362531127744,5.433066480292713,-4.321397762964983,-0.273177723986891,-4.533818108078403,-9.92006255713171,-1.7904493344938477,-8.633969291563293,g
0.12969982157935842,7.602582952589029,-2.3011337314206264,1.4845674504612798,-3.9349234143482996,-9.399773054381493,-2.0651808695723246,-7.6575182750236745,g
1.2176102420788237,9.161399695522444,-1.1892860889764865,2.510283699215359,-3.219496018814104,-9.860217811267704,-2.917579114099005,-6.931410031805095,g
1.0714219838853847,9.637433316010384,-1.215499250510472,2.6651067931879573,-2.983554149476679,-11.249959557402395,-4.300659790804802,-6.649732057404277,g
-0.022262123956028577,9.104040085097987,-2.190490387726416,2.141022548637717,-3.73768412491802,-13.173363568821973,-5.861407062487887,-6.694938914970066,g
-1.5206657035117381,8.221496031516477,-3.5714956695620756,1.36447686876599,-5.005460308184641,-15.005762270038755,-7.006495498517362,-6.663270810160801,g
-2.927192831358934,7.595006725847594,-4.795903652932478,0.7540714610384969,-5.948036412017632,-16.20648487565854,-7.215230486102219,-6.1116134438096505,g
-4.01855810569089,7.365916816312691,-5.584068551813173,0.4950129583080983,-6.2599503452674465,-16.568549210049735,-6.326966989500766,-4.847056764136168,g
-4.848986505566672,7.445789781444387,-5.992277569670881,0.48886337562264204,-5.924220644218265,-16.221350134236506,-4.56529907092909,-3.032794623567485,g
-5.5706665107579605,7.7544673197753955,-6.265042292448581,0.502586401704544,-4.733305957577713,-15.451357557296387,-2.3571760290409505,-1.0542175089266164,g
-6.233557076167184,8.086885566457973,-6.626154691841798,0.3891992857704272,-2.748531105350441,-14.50677682626025,-0.13091211459135882,0.7222847717225829,g
-6.714186546488596,8.117588650393193,-7.103111639633513,0.20403986851526476,-0.7222751468258615,-13.48733849427571,1.826322566415924,2.1219550967017087,g
-6.819545923511674,7.775191029483916,-7.498299291675673,0.1315792040054251,0.6990420373073276,-12.361560127860427,3.4229043591019326,3.1686868551073943,g
-5.883931749891663,6.99485678139798,-7.382595821096015,0.640050797435848,3.286668935055977,-9.801469872930971,5.530028663827377,4.44805576160925,g
-5.372370005645027,6.466912508988015,-7.182853336985213,0.9499447389935411,4.831657736536629,-8.636396470997187,5.81254391326419,4.5423108450554475,g
-5.253087277208197,5.4897543448007315,-7.300970879696692,1.040327785943282,5.708190602323625,-7.657298589664995,5.384384511933583,4.11394293894372,g
-5.253087277208196,5.4897543448007315,-7.300970879696692,1.0403277859432818,5.708190602323625,-7.657298589664997,5.3843845119335825,4.11394293894372,g
-5.626292861831804,4.223604083296332,-7.81475511164044,0.8740131698814755,5.885433505399092,-6.699382417835655,4.318756752385573,3.200947123730413,g
-6.416407643608835,2.9957612039909507,-8.587687404445598,0.5373302612709392,6.083260283567146,-5.5354401359718235,2.8479234940295446,1.9852397252628062,g
-7.524107219315562,1.7918182095433024,-9.474923093761985,0.09878670110810402,6.6153026273006414,-4.12328327262112,1.1566516055171097,0.6454612232795621,g
-8.92595985467861,0.3307843774470104,-10.446208456345303,-0.4964592969037721,7.040723407073135,-2.676286725242701,-0.7157473344130374,-0.7581450793281924,g
-10.626354160559732,-1.501589894366329,-11.544423734648941,-1.3840385463484792,6.98019099417242,-1.4957775028050229,-2.783138569173029,-2.2476669535667697,g
-12.523031702798267,-3.6011054322718734,-12.783364351502668,-2.621988584429878,6.457539581107871,-0.7283310558624334,-4.978110916378634,-3.7920139022798978,g
-14.326127313835674,-5.8747957825791515,-14.064139382878698,-4.064306731271281,5.365895159724888,-0.2239156451014943,-7.095400429030247,-5.2135288235798996,g
-15.629512681295022,-8.167769351642841,-15.149115329497826,-5.395768628800171,3.48320415781321,0.41971661968173357,-8.815789059806065,-6.227430771133389,g
-16.114510685426303,-10.071688104389256,-15.762796074771481,-6.317060108250411,1.2586655793015693,1.6188444612785902,-9.81852884420657,-6.595784150904786,g
-15.742539187056986,-11.220848204696077,-15.799546760867438,-6.729710086031017,-0.2653495899501797,3.4915209172276156,-9.974659783529988,-6.285532363613727,g
-14.769234084011487,-11.791389041559059,-15.429293933362615,-6.762854741354687,-0.7201264085626498,5.725850569652852,-9.463016548040148,-5.49240734475064,g
-13.550998601118298,-12.350678082724354,-14.940340039976016,-6.624205296696911,-0.9024159270186594,7.792928416874608,-8.628049055107182,-4.483709039208014,g
-12.312596963097107,-13.167763020886767,-14.482243698115786,-6.4185732773719835,-1.596626869176262,9.33842820023821,-7.678359388807142,-3.389346129041667,g
-11.089488605813008,-13.992491200565613,-14.016795023855902,-6.10429793663444,-2.578919341544578,10.389855478291125,-6.556693322955132,-2.1507964639242525,g
-9.882323402963692,-14.550535643893344,-13.509325374326323,-5.622075944894445,-3.2512227276966015,11.21376910274282,-5.122574319468179,-0.6911322329440808,g
-8.847894868241713,-14.902989730032953,-13.092179464534226,-5.062008784594094,-3.592522406697617,12.00163200340451,-3.4201278225827254,0.8653477104718308,g
-8.324424309657605,-15.230473810596738,-13.016861748629633,-4.6956778200732225,-3.8964239521772392,12.665723127215843,-1.7529823424318507,2.1504964407601657,g
-8.655572903594834,-15.619258034683991,-11.327026808909324,-4.826590189577021,-4.1601388077531825,12.876146428575087,-0.5450230892211133,2.7354913082907935,g
-7.619582709561179,-16.200102077521542,-9.878462094676937,-3.8879980432896994,-4.40649373276942,12.304114816722604,-0.1271722485353406,2.3874534404239243,g
-7.099375658809052,-17.138992991924724,-8.761148637105201,-3.353599053920784,-5.095969297052486,10.930977383532916,-0.5527763577529357,1.2072775669800122,g
-6.927726393044774,-18.267656704886473,-7.908231262728842,-4.753113907685278,-6.453216299081385,9.197782657345556,-1.5314585163030192,-0.4418531408483357,g
-6.87059620803181,-19.030051312547474,-8.807336827642336,-6.026071954924967,-7.783042609149062,7.818508953605743,-2.5862324861053083,-2.1654371530234338,g
-8.44460339695451,-19.06963162306955,-9.1564486898105,-7.04899699656808,-8.280259601453736,7.355596552546973,-3.3726045392992203,-3.762965209474193,g
-9.485328458949846,-18.64475119401191,-9.104006259984944,-7.849931771880963,-8.251267510875063,7.911632488107756,-3.870274513256388,-5.264579445695836,g
-10.080148533873206,-18.214013701847183,-8.85483171508093,-8.476609732573714,-8.684577733982065,9.184436048875103,-4.2503116198751565,-6.744461888873059,g
-10.280044858207846,-17.841233262484756,-8.470641364608605,-8.888767799050203,-9.752556968633803,10.764213228628464,-4.596040336308685,-8.097709493434145,g
-10.062882155493082,-17.300061759223944,-7.909557801515494,-8.98495372152439,-10.582047342395562,12.3670166266106,-4.806065184715236,-9.02049888005415,g
-9.41839872167262,-16.56454636715097,-9.357604486662598,-8.738553178050031,-10.481138456903375,13.859723981833643,-4.737844749498452,-9.227974125130025,g
-10.780555680109604,-15.865065127906835,-11.145750706704613,-9.997176117393618,-9.60292814584158,15.153013338369812,-4.377673138411875,-8.702205952425707,g
-12.260046358059824,-15.406172581926489,-11.132970121670521,-11.438358680467351,-8.416640221487912,16.085469389009965,-3.8859200129385734,-7.747110845289745,g
-13.821604591659575,-15.364315050764052,-11.167036063998923,-11.481899849116079,-7.395818685181095,16.380720552716507,-3.546746594168922,-6.818407318681724,g
-15.430227191470356,-16.03026658188797,-9.61955345556181,-11.975607757142216,-7.317325264459178,15.733268458031688,-3.6636951628806633,-6.270442470837305,g
-15.36434647332265,-17.55008428548755,-8.678749217923816,-12.78154109813734,-8.888817725071032,13.994419830612557,-4.410018729384268,-6.19212033857911,g
-15.681342217109602,-19.550671941371203,-8.127391689451404,-13.658248230187258,-11.685557811460813,11.299680257969893,-5.733797143564774,-6.430307405957109,g
-16.226153464543067,-21.394312067878953,-7.646320700438137,-14.416401536511932,-14.241999531066025,8.002997058698112,-7.443644648420056,-6.777027196844363,g
-16.853206428230582,-22.8342353809082,-6.970819953065577,-15.002068880200232,-15.666904870852207,4.495543428871704,-7.622918565892857,-7.170581863724036,g
-17.45469271122895,-24.09603435319245,-5.951657244494753,-15.45899722795609,-16.541039245898848,1.1069530011306261,-7.586776233641027,-7.734698125577269,g
-17.920111498933018,-22.68147360100089,-4.529076058252487,-15.816970211208039,-17.818396133907672,-1.858532876639194,-7.36235905668661,-8.6246878049441,g
-18.09466652580658,-21.00514040785935,-2.7110057680037216,-16.008910325030847,-19.53046385358986,-4.082327100695871,-7.001802504689664,-9.838829708186625,g
-17.796228141271726,-21.177103956046203,-4.207537329502685,-15.889629177388382,-21.08296171863997,-5.2797542232315084,-6.5349931571711695,-11.171384308000066,g
-16.882162440208127,-20.565031574148637,-5.148717637378242,-15.335524531290769,-22.13887982908398,-5.276098603569315,-7.560335177870186,-12.320974123092721,g
-15.318990605962744,-19.130042907792124,-5.491239734031188,-14.334488836944839,-22.52478790564217,-4.037259179343477,-7.725234868984342,-13.036178383572198,g
-10.833170980666463,-13.782473028924889,-4.555114778305418,-11.493418803559617,-19.95365747136632,1.5511064450532182,-5.4596375661643055,-12.874721353787688,g
-8.473080805293105,-10.610077421486556,-3.6340364085467405,-9.9984230082108,-17.554069649732458,5.2585835843527535,-3.3443772646171497,-12.214448833267793,g
-6.4301458750701,-7.735494509235531,-2.818177863692509,-8.655778627796193,-15.396744222363779,9.013669602042933,-2.682810999845385,-11.430944077826554,g
-6.430145875070099,-7.735494509235531,-2.818177863692509,-8.655778627796193,-15.396744222363782,9.013669602042935,-2.682810999845384,-11.430944077826554,g
-4.908168430532022,-5.216854705766233,-2.4196152236222304,-7.578712963718199,-13.355731922451465,12.37693158237658,-2.3591159478647437,-10.680114777652701,g
-4.007780236446751,-5.66569567077174,-2.635173430004754,-6.8246142894118265,-10.929719549798564,14.932214430182862,-2.497404878636356,-10.013309592295919,g
-3.7196121396509754,-6.629930048794027,-3.456108897686277,-6.341784875691173,-8.392697289774256,16.374486146632652,-3.0168251905935946,-9.359454311882676,g
-3.9150694992091735,-5.8633115043712065,-3.064429276268357,-5.94723568701536,-6.564743192881414,16.640203643784893,-3.6363237341316896,-8.542441478376281,g
-4.3844075623537595,-5.689622140866555,-3.0815764050931103,-5.410526583158689,-5.592965704836646,15.913645405834538,-2.379878664220006,-7.375144221305241,g
-4.949348873324373,-5.77886992925382,-3.240241029742127,-4.630592872588521,-4.864863146758546,14.432969051321823,-1.3266656980446543,-5.833820039981964,g
-5.571952766665864,-6.166277471843459,-3.552981140751869,-3.771949218607663,-4.134884542634504,12.284382807584453,-0.5766377958344318,-4.185023613462585,g
-6.341433125200871,-7.111750882847645,-4.271011723148485,-3.212602686024759,-3.8708493595684255,9.425125723853583,-0.4440805761825972,-2.9021070452806543,g
-7.321700786552249,-8.590050484818168,-5.59570250937602,-3.29544623991872,-4.381136598862166,5.918948115599016,-1.1878067745112317,-2.3832973390334438,g
-8.377815709825676,-10.246311971831753,-7.427318293105179,-4.053440067146662,-5.427083599072316,2.1449923964890045,-2.744851490999605,-2.6889120593197644,g
-9.135101545372219,-11.752090742219384,-9.32918345979481,-5.132799682105886,-6.854566725758208,-1.208212536166873,-4.691554805726907,-3.513211084487375,g
-9.144301503772681,-12.867637922476543,-10.704480619494168,-6.009269198127923,-8.748695973506162,-3.381131444467209,-4.520469181740628,-4.415280594599589,g
-8.184996853708293,-13.271389672485407,-11.12517950793889,-6.367466211050113,-10.692373243682114,-3.9155753835942564,-5.612738109422442,-5.149451753601089,g
-6.503123536069042,-12.78058823776497,-10.654890837965484,-6.357840362024929,-11.758155978956037,-2.9556956005568424,-6.059177348556046,-5.868090707356041,g
-4.756385017174432,-11.768842163275773,-9.867057720064059,-6.4997647147172675,-11.71813993566801,-1.205687076671919,-6.3441991969673595,-7.023275802668897,g
-3.6285034123093483,-10.942677641772391,-9.414150682398974,-7.261751396232652,-11.518613557882642,0.5369794646123688,-7.039205407909779,-8.979652996875434,g
-3.366720111614022,-10.56566765006237,-9.468274455911743,-8.628502669247542,-11.99070754261127,1.9477499724790472,-8.238574815996866,-11.601872507119658,g
-3.610638582219804,-10.198645414350322,-9.562943113675606,-10.007990535554406,-12.700185604846126,3.3511370613396942,-9.355621852098423,-14.16754470323535,g
-3.6640902128372197,-9.288911028740674,-8.981411525191374,-10.576995428516234,-12.629426805420954,5.358191507503809,-9.508364106976886,-15.724050410888463,g
-3.007265921776127,-7.712816682723092,-7.319660283973391,-9.82121232725236,-11.416576712448139,8.2939010155084,-8.157193057158725,-15.640435148157962,g
-1.6705521689322587,-5.685499903913387,-4.785821586406039,-7.878547639793924,-9.330165443226601,11.855947380906612,-5.4812467586006575,-13.956946705502938,g
-0.20529548456615543,-3.541017593302154,-2.0933753702541855,-5.440936659660432,-6.624832735948618,15.203472029820972,-4.1937793719924015,-11.310265349473934,g
0.7299485294963886,-1.7750138225780563,-0.04365255443539588,-3.285824888865089,-3.685033903198775,17.40171075926539,-1.4346913066204952,-8.510830896650845,g
0.8753135141249786,-0.9006846461494813,0.981642408192454,-1.7747055120309612,-1.3224664544973674,17.96482168370091,0.298414334959873,-6.056741244838497,g
0.5789820336607657,-0.9385521881022149,1.2715774241191506,-0.6885153418492884,-0.04328503050206951,17.128699319235313,1.1055989685571812,-3.9083101918125394,g
0.5195613735022058,-1.2967331945513048,1.5120369281388366,0.4797254611585842,0.7233430381241887,15.603680384568852,1.563194209522635,-1.6873548885700387,g
1.1487991638707395,-1.4518655798973295,2.1652555197567165,2.017642799386066,1.848439842390965,13.979517121434816,2.130151885562526,0.8524966110607174,g
2.315873130786389,-1.5585036425871823,3.071751967171234,3.6878773871434967,3.15064017522256,12.305137630106007,2.705723712256134,3.480085200722761,g
3.3777457943142144,-2.1299599866076546,3.633288622002877,4.861968965591018,3.6472757192797145,10.199929346803295,2.755857793329651,5.564222563028334,g
3.6767215036655765,-3.3252479580688394,3.3388250247095934,4.9622625440259815,3.039140353965869,7.3327352388214875,1.8385320818887982,6.495571154656527,g
2.9857700751202363,-4.836901656787608,2.1351844395153963,3.849193571177225,2.084223044420701,3.820726934738096,0.0037537048578872856,6.089611875469929,g
1.6047707409764669,-6.2758398586533595,0.4201342703825276,1.8733540684846424,1.489584207423222,0.2763351214968853,-2.2213822872590336,4.672632020976227,g
0.09233238416950533,-7.319364039773919,-1.2285581346127656,-0.40287263429484826,1.2813730939300008,-2.461838741570476,-4.1432013478019645,2.8390517476498847,g
-1.1327199952866511,-7.649048945029049,-2.398382696896672,-2.5696003340582676,1.3596576647751752,-3.7321282506440916,-5.261020814627238,1.0881273893616754,g
-2.032758277854883,-7.178106791761695,-3.0861467998563143,-4.550262074205346,1.7855117356595063,-3.372049333965397,-5.499510914495512,-0.419841384506969,g
-2.8848068474710016,-6.323034588535205,-3.6625981530447476,-6.50352207092796,2.2646270317497024,-1.7623290847882864,-5.186698339099747,-1.8505122485725187,g
-3.9854158498639913,-5.683167022573639,-4.540686988032173,-8.565999564313934,2.191828178739191,0.4422535391655182,-4.76526741867574,-3.456075955863124,g
-5.3709094443562915,-5.419745031033374,-5.822784466209458,-10.648593706535527,1.6057092806463527,2.676842548312145,-4.461936745221489,-5.2968054891514,g
-6.762479272623297,-5.240916414405215,-7.240990013894009,-12.424630043066738,1.3634624802422064,4.646997100331085,-4.210370170169414,-7.136807745121776,g
-7.745782986152554,-4.967983442575709,-8.381857828447552,-13.491459234721896,1.9133364244273399,6.269772956736948,-3.845951493305196,-8.572996275447602,g
-8.020256751331134,-4.75131335414046,-8.929877799739396,-13.575037415444143,2.5603767785549523,7.530098474800695,-3.3063522566946504,-9.263906237399611,g
-7.547116174872128,-4.705003775052843,-8.776805948131727,-12.648418538564652,2.4471257541961107,8.372651487464783,-2.6594789217521275,-9.086665354121894,g
-5.340831651672717,-4.899359570977351,-7.089406207003458,-8.766200104227412,0.6176213650613376,8.015298670970818,-1.6808551618234921,-6.808753063684239,g
-4.262518905743503,-5.4841598675699945,-6.302370645591678,-6.591784908899179,-0.505567454968006,6.22143576877783,-1.7838525791080282,-5.406300053167833,g
-3.468138659140641,-6.646629269284466,-5.953895333675638,-4.780250586125508,-1.8325669961904445,3.136557008203061,-2.505696536688819,-4.292058494276271,g
-3.468138659140641,-6.646629269284466,-5.953895333675638,-4.780250586125509,-1.8325669961904445,3.1365570082030616,-2.505696536688819,-4.292058494276271,g
-2.9503501253166964,-8.120779012000026,-6.070063584467723,-3.600015615671411,-3.02692586898059,-1.0371816521219315,-3.817819371995049,-3.6459150308348898,g
-2.610518179388215,-9.55579504668964,-6.535504568147206,-3.1679520163289654,-3.8262749630842543,-5.844385805948535,-5.552676698369519,-3.4882236247485223,g
-2.38190889177903,-10.854916891491069,-7.2399911839173186,-3.475495029806125,-4.802132055817039,-10.753597688860713,-5.712684480007124,-3.7705317871039403,g
-2.319922172145703,-12.003352654569099,-8.142406688776173,-2.664981416863516,-6.779406763639301,-11.996242324128982,-5.646730989723833,-4.487053028378163,g
-2.606008022751503,-12.86123030753958,-7.36150058476222,-2.1723748197747534,-9.678910684660632,-12.635515329143555,-5.418789294080668,-3.8379302706854035,g
-3.448015956694821,-13.389672328109054,-6.873034563333052,-2.0931071404398667,-10.221274158705292,-15.911947668803299,-5.155909354822082,-3.5499907879154393,g
-4.911195188417299,-13.810119355287256,-6.760102651810614,-2.433437803584132,-10.442350135152967,-18.495661438513018,-4.971931114761733,-3.7074545767975158,g
-6.786091748146177,-14.202197065464565,-8.721899244544828,-3.064516512323117,-12.700778081283456,-20.28082448158672,-4.867911031234611,-4.232841122431917,g
-8.62202648155809,-14.136220048872763,-10.396053004481685,-3.741044730122661,-14.35013807575677,-21.02521293799427,-6.240275209729579,-4.895040369576163,g
-9.94757694800704,-13.068560069202974,-11.344556080005932,-4.168779547977747,-14.909925142528227,-20.52007704819067,-6.944388603445191,-5.39351066520991,g
-10.527355862048386,-11.002307688030477,-11.41260481693881,-5.613932502190819,-14.565392593577124,-18.799452689334213,-6.912834636890392,-5.471309122746274,g
-10.45040848863149,-8.44858477327428,-10.75993124514831,-6.170590681436526,-14.117223110419776,-16.16317051245076,-6.344429312426411,-4.992867695524177,g
-9.984067984032473,-5.849078136329108,-9.660350678722962,-6.043137777132417,-13.823870271415625,-13.014368682369874,-7.311001468135645,-3.952276439359511,g
-9.31945884450322,-3.3701432020845274,-8.307515846578527,-7.1946744086892895,-13.091043846493353,-13.022771227702075,-8.45664533747959,-4.147989636850156,g
-8.404814151664153,-1.148775850165084,-8.665536408138639,-8.139367379138415,-11.56039749742565,-13.10175667664445,-9.632002878231914,-5.48540122363054,g
-6.985757844225789,0.6906620976597304,-8.773298475366351,-8.61844201032292,-12.149130824563454,-10.090056883382292,-10.639562208530874,-6.202994633523027,g
-4.8329126980972745,2.274883880917189,-8.482102928075014,-8.44561954495528,-12.783051881037043,-7.434691963770916,-11.337746705894661,-6.2067886971296025,g
-2.008202277695131,3.8319067571549352,-5.958183263147371,-7.639384855573897,-10.895478461200753,-5.303029998144146,-11.688996820827114,-5.558931326599702,g
1.0362491256801725,5.214974751017079,-3.4601679365536597,-6.447966670726993,-8.70233283259444,-3.943330655814882,-10.249713304274414,-4.464881744377249,g
3.644430489935617,5.92510159940876,-1.4616655255116027,-5.274518989765848,-6.732807958303712,-3.603379468289879,-9.186482253077086,-3.246434255500129,g
5.329870961607195,5.730847371217301,-0.2644677969960611,-3.0069951953127108,-5.538709788254562,-4.371631961185633,-8.69481365846212,-2.2752089143495864,g
6.069728256015315,4.9762110413358815,0.18511645401871196,-1.6524906634272738,-4.908333036418951,-6.09923104313575,-8.729944102762031,-1.8474424015907058,g
6.301788032479864,4.183324409950228,0.20983458948132344,-0.9712390697304392,-4.370400507073756,-8.466420041660879,-9.087175966372115,-2.0596384688907023,g
6.631549038269968,3.671577095273392,0.187310855801707,-0.6328436976296375,-3.9578425237903603,-11.094853353841147,-9.554487196841938,-1.0562970827061633,g
7.455117742706072,3.6751491992705416,0.3780032480332969,-0.4542054067304063,-3.8043082226389315,-13.62237357799683,-9.975785248447638,-0.6477317063058148,g
8.737441427775405,4.430272679957968,0.8193329504665879,-0.4976548565338267,-3.4873366157184855,-15.770472516743286,-10.26187726430616,-0.840316764368344,g
10.07272276254003,5.862612577598486,1.3043745765827608,-0.9836706226907663,-2.599694412959476,-17.41336386411231,-10.429788121291473,-1.6763467233076177,g
10.978402042257212,7.471160189773139,1.5268133676780444,-2.092424445791001,-1.6429782981367969,-18.55782942680032,-10.593178911824278,-3.180750128567044,g
11.221892551017843,8.835287228016204,1.3412964739308602,-3.785470674562576,-1.4851994065287364,-19.201759320920463,-10.821089779037223,-5.260598152906413,g
10.950542494448364,10.063690516690478,0.8957665595948615,-5.760020946012505,-2.0843546260391324,-19.21114414749917,-10.994473873437972,-7.6244085672191435,g
10.541663823772112,11.49986271020657,0.4941951624630819,-7.56760305641845,-2.5533226606087522,-18.361544079286737,-10.848232898756907,-9.824568142085095,g
10.307871876983402,13.186102214854662,0.35349248532687483,-8.824202590177427,-2.394170923397981,-16.50336091027063,-10.157856823744055,-11.425571347201805,g
10.28956569761618,14.887673114091445,0.4916589594343167,-9.376950714428213,-1.8736958836060569,-13.700003328031324,-8.871658596739508,-12.175672974226948,g
10.267379102815982,16.43676057146792,0.7682465403625522,-9.325265728227723,-1.2430991741054003,-10.264186960016822,-7.119393163766371,-12.068322012526147,g
9.950839546784643,17.713161616471506,0.9688768825767472,-8.90009847126272,-0.46372000032805777,-6.700589920717287,-5.174064823185,-11.287285369875956,g
9.197168526489353,18.445425752531694,0.9131515227227961,-8.297607045186705,0.2210448141000929,-3.558366668573209,-3.3821258353273684,-10.093352152222318,g
8.12565168119091,18.43649619766895,0.5937633107967212,-7.574590210192019,0.345649720482266,-1.2312639388312145,-2.0177894687118387,-8.705813847239593,g
7.074059218238896,17.957416319831918,0.23518050647920236,-6.65090962562514,0.11071432141405879,0.16231313257389973,-1.1410561974758853,-7.227007431785594,g
6.4412036862239885,17.58112504620582,0.16863204754207933,-5.392810398484044,0.4060109126504611,0.7154039075568427,-0.6159194578997235,-5.652475684044443,g
6.516968740414225,17.627160598580016,0.6269457454702199,-3.722174612423516,1.5967064064792722,0.5607483822791973,-0.27718055488253224,-3.959246700937895,g
7.377415376829221,18.038690409113485,1.6432958833715177,-1.7068684524353217,2.983450892361835,-0.24432235060607638,-0.06693721228381869,-2.2079685343848015,g
8.857840845623574,18.715027495901232,3.064632499900857,0.401850583693971,3.8128310151207336,-1.7249748618261271,-0.05311506369875123,-0.5964979006818688,g
12.159255200112437,20.258308432373827,5.811723686491622,3.3703248981645944,4.109301309635367,-6.894196394805169,-1.2891052901170745,0.954074205332601,g
13.235391007829568,20.330142073057015,6.485654209716321,3.6717440710885874,3.602452649506753,-10.383462286240581,-2.7985555270847082,0.433474225047504,g
13.783624815243595,19.797899992521568,6.653430245496148,3.2213927915862905,2.5030161379087543,-13.920787299395835,-4.704749023846848,-0.8340913532587806,g
13.783624815243593,19.79789999252157,6.653430245496148,3.2213927915862905,2.5030161379087543,-13.920787299395835,-4.704749023846847,-0.8340913532587807,g
14.010382403594244,19.252423248082046,6.619164899208208,2.32434185941539,1.3848861344303312,-16.864553011373907,-6.536166708305558,-2.418404115480621,g
14.1650896686279,19.196012821157872,6.639774437795462,1.2853536977192819,0.7350049167536329,-18.725254993259085,-7.856520941782819,-3.8622792963393664,g
14.306647863100242,19.505835978527625,6.680773590362714,0.21398778043221886,0.1001931742661439,-19.390791112892224,-8.539817475113932,-4.945585437978965,g
14.22155431845288,19.67319832977349,6.445562991333115,-1.0156274053423333,-1.3106229181669589,-19.09887411259095,-8.784299826650187,-5.767223495744325,g
13.55498991061188,19.28148035249794,5.589891512761129,-2.6191295486467316,-3.5272822385467437,-18.233918508888078,-8.91162276256308,-6.595826393222575,g
12.06314992573057,18.119196185518053,3.9363736897006376,-4.67950322027763,-5.9797295106042885,-17.12410955412016,-9.153429818975813,-7.624280137534458,g
9.810852785735658,16.209151560912517,1.6045430259954867,-7.022433878889553,-8.350897970554096,-15.933507970362445,-9.528752938938572,-8.813903240390918,g
7.1639977973585784,14.02868479159894,-1.0033587404009936,-7.420097438882969,-10.480788426220323,-14.679943696389856,-9.838606258810307,-9.932429649270277,g
4.566612671343442,12.400106862617783,-3.4217876369282423,-7.364210405464506,-11.778853487428421,-13.37905969028397,-9.821558205783784,-10.752206593544988,g
2.2719643717562996,11.7571611073043,-5.425918808630714,-6.951229460240493,-11.736511364434708,-12.209931842284977,-9.41112059328537,-11.250980045229678,g
0.24971484207168046,11.62790001606981,-7.125369772249185,-7.997767291982496,-10.980253052955032,-11.524480598315694,-8.857700557641065,-11.639565680424452,g
-1.6689937527361944,11.1324096722927,-8.738817469511705,-8.828149024868516,-10.887450765898546,-11.66994694216494,-8.561267634669784,-12.188189257283486,g
-3.5656911208798703,9.881609300041726,-10.31203845763515,-9.469998861771439,-12.010788162310238,-12.816640537898943,-8.790005152033341,-13.019628212882841,g
-5.3269931049432575,8.15984608322413,-11.672291040822934,-9.817082570773609,-13.612361791992862,-14.950580514011174,-9.571653694967019,-14.059269175459345,g
-6.7029577200773165,6.453084763310022,-12.577155343951341,-9.738114097453103,-14.810308488396094,-17.943874466456307,-10.777251913664763,-15.146803756408735,g
-7.440207321299181,5.179031839878075,-12.836085421085892,-9.1848029214861,-15.375391236218807,-17.878651099364806,-10.41293887917838,-16.155997778797634,g
-7.399888033230352,4.713929725801595,-12.356209285732854,-8.216914319686058,-15.300202350159035,-17.46506061274125,-9.666412096060986,-15.145599533816943,g
-6.627272907859014,5.16909490705276,-11.201922749524343,-8.83405150787485,-14.553787884294644,-16.628100261999002,-8.590235586960073,-13.822878460338746,g
-5.353185398361504,6.075957470276469,-9.634397817078625,-9.373356313625761,-13.64553102229578,-15.440798080379713,-7.401715707062057,-12.333660276023732,g
-3.916106514353017,6.68616672437013,-8.01850372599936,-9.78236175990058,-13.54751301751143,-17.232739121343503,-7.661964831926457,-12.498431119065259,g
-2.646105316250405,6.706977449652081,-6.655078954927452,-8.499125714041769,-14.450549315251303,-18.118669069293876,-7.52245500367201,-12.336328290528932,g
-1.7847569093365714,6.475272317487336,-5.7158069309007224,-7.49939612999345,-15.225741329668377,-18.195220821788425,-6.931999555186712,-11.796627729160548,g
-1.4718700034329362,6.379208812680095,-5.2969027133632185,-6.9185056789336965,-14.699369857229602,-17.547199818445527,-5.822706410324864,-10.853143604614894,g
-1.7723028035595625,6.432255320355225,-5.450094328104617,-6.828604771037452,-12.953970634490483,-16.20355112930673,-4.180065074770633,-9.514387304916658,g
-2.7145831412122274,6.450898368320901,-6.161274009111011,-7.2105885750192105,-10.892045054768879,-14.168044042796893,-2.052755967838601,-7.810682434708383,g
-4.3275145963252415,6.244011171460244,-7.383349445193003,-7.975530468937434,-9.138332008334284,-15.207892547588662,-1.363010889436856,-5.795293152397813,g
-4.2503541382076335,5.477245500164856,-6.870515712575761,-9.014795666437964,-7.9986732736033535,-16.498947284414136,-0.9340494301992713,-5.444499614395026,g
-4.421913279036653,3.7539763626062976,-6.5408112189906635,-8.392937884693616,-7.868577896013377,-18.05414784781744,-0.8365221067460318,-5.163711815751737,g
-4.87735342035065,1.1154077121717818,-6.472316201121217,-7.842361397871555,-8.783075611415283,-19.773142958343538,-1.0336775758157986,-4.931420210178024,g
-5.520602281949746,-1.811597535246189,-6.606780269851536,-7.423149266319325,-9.91289410881126,-18.3227077814623,-0.09549151262335016,-3.028104717278141,g
-6.132749622935478,-4.437475611475151,-6.77402988086138,-8.714218427427767,-10.403948576386725,-17.627475537858835,0.09404707614333874,-1.5425041886510393,g
-6.467985987395357,-6.767856710418991,-6.781541196609721,-9.950891940576152,-10.561956526488562,-17.661647014622346,-0.4907580255240186,-0.6809145779889295,g
-6.344330469392213,-9.105362509157818,-6.466841234702929,-11.095024584020969,-11.413343704807533,-18.323616660269295,-1.8297012647762116,-0.6228056442588608,g
-7.47484206789301,-11.435239735684346,-5.706058442480486,-12.02090500654415,-13.213116169081943,-19.33174122238148,-3.709108057509846,-1.368149593987325,g
-7.5915075906798775,-13.400058010390385,-6.285248680926057,-12.505751597384991,-15.165166039655134,-20.223005349796797,-5.71153061855696,-2.665649976243029,g
-6.598005459203053,-14.685871139742957,-5.925658928054245,-12.331601758571537,-16.507050374485864,-20.500381194872674,-7.384453245878882,-4.119042514810299,g
-6.9249919656048915,-15.118476174098102,-6.802993184720476,-11.437831190495302,-17.004583714524113,-19.81194646633244,-8.412167237910316,-5.386333477776195,g
-6.847276052743086,-14.558949970872217,-7.129432461816696,-11.827746893975718,-16.388525601499055,-18.049449877126342,-8.672797678339453,-6.304464408060714,g
-6.553204449441326,-13.086155573752956,-7.018192178791955,-11.978384740439314,-14.290189867809213,-15.3312689324837,-8.212362418555667,-6.85864373680639,g
-6.207382556055299,-11.1906569977326,-6.63023802440315,-11.989618844497732,-11.015958991687231,-11.879705477616978,-7.169546553694081,-7.052596043358578,g
-5.895469500780631,-9.40514351822777,-6.101815905809962,-10.288970002392114,-7.562924743577623,-7.868696340607005,-5.659905026494531,-6.806133178627914,g
-5.639543976929182,-7.758858826585538,-5.50928394813508,-8.55237977342782,-4.500289158582974,-3.383902743935495,-3.7132417685242984,-5.980471072966681,g
-3.7054143958696835,-3.934707445042799,-4.5224163495620004,-5.07643439634787,1.6284573924928867,6.361074507146971,1.2120880355639883,-2.582973974156171,g
-2.710567208405741,-2.260360018620479,-2.6478250051793744,-3.7839286471357867,4.453352757734627,10.954298205488831,3.715343434798065,-0.4824963965879707,g
-2.679985141363799,-1.3524585840803027,-1.709985546634203,-3.1231406725674313,6.523860261783932,14.951890349202293,5.917307530053479,1.4923326360324722,g
-2.6799851413637996,-1.3524585840803027,-1.709985546634203,-3.1231406725674313,6.523860261783932,14.951890349202293,5.91730753005348,1.4923326360324725,g
-3.5939786205407174,-1.259967824956631,-1.8020066919835138,-3.1307982430453882,8.093229264719852,18.274385924526086,7.757394860746362,3.2360354554266295,g
-5.217348811883881,-1.8944280310384773,-2.801685661620551,-3.6540004742646817,9.377453412634676,20.93141701142088,9.223830828564937,4.779288641202934,g
-7.234736370454023,-3.246958199354629,-4.4911793338346175,-4.510338775902558,9.796250618653842,22.84478145854947,10.18828190238454,6.099597821627656,g
-9.40623366771482,-5.210796495322339,-6.652824331072338,-5.644947238005412,8.632700245762985,23.798062013048064,10.401915151911208,6.983417651246849,g
-11.621430242100374,-7.5344812259628045,-7.107873358411071,-7.138881089504942,5.996332751287592,23.540051563498942,9.623652391288605,7.068310067868649,g
-13.818274360964741,-10.14190995017975,-7.650169774176962,-7.335853524768976,2.4807482857002596,21.953032748495282,7.740002686078365,6.033516313260722,g
-15.843238462634716,-10.607694673186906,-8.201370444443743,-7.588152381582252,0.8806337761843203,19.186612263832345,4.834182227840834,3.807235616664845,g
-17.390573921991383,-11.144206325813153,-8.591946583253689,-7.744612243595346,-0.49591351483854956,15.656342973032759,3.3749634620056868,2.649682911272556,g
-18.101186331684577,-11.459413820986668,-10.303437051415411,-7.631857095098409,-1.5114301072132892,11.85931306084091,1.9830936911812664,1.5456897154332192,g
-17.74765794413403,-11.28713234767334,-10.92967917449037,-8.691940980099243,-2.1054541695835542,8.138208656382702,0.6842952076687787,0.5874545982842665,g
-16.336399698010915,-12.682471351176574,-10.363526384160942,-8.909261430622761,-2.624625603563338,4.637208277978557,-0.5931896522250197,-0.2859032903473683,g
-14.042821666977659,-13.075431422279099,-8.668050108775692,-8.31855624230273,-5.275990163417087,1.5053391289648892,-1.8827801607740877,-3.034583076902091,g
-11.068582655988155,-12.279887755863053,-5.937231910482882,-6.978247140817954,-7.339453860522599,-0.9003427790950529,-4.197934382247386,-5.240308783159516,g
-7.567896594858572,-10.086964280667479,-2.2926737402759754,-4.910888630681852,-7.792177957021745,-2.065126912261386,-5.3797513001423365,-6.751343108033578,g
-3.685499293484041,-6.674599041723437,0.02012654717258049,-2.147069005928021,-6.128471839260415,-1.5708891429733098,-5.232546719177965,-7.3523818370303955,g
0.3664380961090835,-2.5022292186937705,0.48839657839270023,-0.5413936924741898,-2.7560402546904132,0.6897147314686917,-3.7879421952665986,-6.847407419626263,g
4.270107679092701,-0.5132538941246911,0.9501491494670947,1.0875161433605223,-0.7149081989211812,4.464883852002799,-1.2370787622439132,-5.158097652842648,g
7.622118391239084,1.256416172588677,3.040096555850853,2.4992944255762737,1.5552632680365743,5.7697941342574675,-0.052783424818054314,-4.415905883399235,g
10.001539690202726,2.4594714452803004,6.214349680587672,3.4624688048051198,3.8480487491281488,10.79911830001637,1.1374152062091372,-3.509313366784288,g
11.073005834878865,2.6733903733658826,8.010388809980755,5.321370813775355,5.563533479848828,15.446959382026872,2.168019664646164,-2.622446557086809,g
10.697675106068598,3.7703542806704524,8.263541941081176,5.952660685637996,6.234530741778331,19.23912723547299,2.9036006017064393,-1.9425014157157023,g
9.010804021075057,3.3014641510405154,7.124578515403047,5.416807512606044,7.912638112305414,21.9289672235939,3.338335601186536,0.32429800415807153,g
6.430507186036171,1.5353648668026072,5.003859306458588,4.062183675769112,8.669776094725144,23.453838380700567,4.770146424680833,1.9222678501720325,g
3.5700893934431805,-1.2477316540368304,2.477554406632425,2.428371246228777,8.442189385770558,23.905020765444362,5.562367367536721,3.2224003986518115,g
1.0446455671809447,-4.537478568382132,0.15209704757351572,1.0515237285483505,7.186646662812194,23.499666290819214,6.024101884054,4.651974002171771,g
-0.7619120170488873,-7.7114070966315635,0.5199960171858558,0.25724107715024547,5.4182831706557035,22.478731844296064,6.417672761175832,6.414585637442637,g
-1.8112426989454513,-10.527961167638171,1.498721647700001,0.07657400302737294,3.551893382914666,20.98861750405807,6.759224865113377,6.306190450568829,g
-2.2877033277050423,-13.154881063501303,1.0127343157162387,0.358932146737883,1.3558229214324216,22.5430170520007,6.837284000756775,5.984172990665259,g
-2.3261885075395377,-15.551096556577653,0.9757866873337037,0.9928788040272678,-1.2170043733410787,20.384921861444305,6.477374566587126,7.055979435240234,g
-1.8431350212325661,-17.164928839232825,1.5315421200315982,2.0370968073073086,-3.1928494014546414,18.20072909297749,5.751378483921081,7.541788790991626,g
-0.6318378868276904,-17.467028847638183,2.8688106107044793,3.643127360051257,-3.410125638196005,16.21290562152959,4.898064291969629,7.758344239709349,g
1.378622362950847,-16.50421359339668,4.956340248838858,5.849493840528019,-1.8786120487140052,14.486872988230553,4.103987215382462,8.05054630638424,g
3.948706368187606,-14.711671211089827,7.485324473361812,8.441056881677284,0.4345203858180932,12.972563919541546,3.4228266308356377,8.53608219244116,g
6.589929469712144,-12.454230394276482,10.021214046481068,10.997963028653606,2.884472957628329,11.664113446946804,2.8548620809552596,9.061278575882962,g
8.809522789124431,-9.994044753979349,12.196451102521504,11.38049339182216,5.452406876392402,10.691676977913225,2.419899656216517,9.34884362348725,g
10.35435580957071,-7.616810768878345,11.820321967198106,10.953164177275285,8.053701596129411,10.280378546245998,2.1660405963439366,9.202595056748141,g
11.280938586710379,-5.435423438650792,10.85597386878294,9.90382925077528,10.44830146169971,10.639006906554204,2.168963780655838,10.668740272240695,g
11.80870154223907,-3.2441066226227,9.709465284740244,10.107046039662723,12.748024015295982,11.841963978647424,2.505787881821804,11.860600429406238,g
12.086008328373882,-0.9020078221391126,10.512348876064404,9.897800510937302,15.118482307722271,13.763359354383795,3.1651414496142207,11.036041254097253,g
12.075265689587983,1.2691428379105898,10.99998522537155,9.24469819079,16.951643208829005,16.140556356344938,3.9939606699178682,10.23241792970423,g
11.652667498612145,2.7929067086043475,10.968936217715532,8.04565907240006,17.247408343157737,18.751466426702248,4.804590112529694,9.333003162672153,g
10.813351860864438,3.636045104710837,10.414777049356735,6.307665311074298,16.02234390393202,21.53528449249773,5.549449942990689,8.205294133726225,g
8.921113009820028,4.665625127326517,8.853514930584272,2.4211303822391264,13.757199353134476,27.64255109209219,7.34614263005862,5.519738322879489,g
8.524519186347161,5.076015850003639,8.476385009267407,2.8952877093995704,13.51462648110602,27.21451971950596,8.584547527804528,4.46137483894497,g
8.619412774143614,5.398496211696589,8.45924693553348,4.310615775467744,13.140450720341658,25.98361929568398,8.00491734295474,3.9051841210806293,g
8.619412774143612,5.39849621169659,8.45924693553348,4.310615775467744,13.140450720341658,25.98361929568398,8.004917342954741,3.9051841210806293,g
8.946790452933469,5.696159511022317,8.445245236262409,4.329692720543086,12.474505772731172,23.891533382069134,7.02867555530968,3.8515530258878234,g
9.138069910644624,5.837809974820737,8.428143755416679,2.862095723530939,11.640644461512082,21.123379303780496,5.893419241570787,4.076016546849294,g
8.993943974115698,5.586779271029367,6.585805860897158,3.4666944866644718,10.66960857543422,20.77545331146475,6.548999080118864,4.281651004899736,g
8.666388352440713,5.068564032302216,6.568815129514415,4.083525047169436,9.898763994079781,19.51633035942537,6.766163561072806,4.325517074006595,g
8.593913873391712,4.810306059637846,6.8035328529224826,4.980194518383721,10.08273178665058,17.747299568496725,6.792557017947059,4.330397604076273,g
9.224100872843534,5.170977388354154,7.658564713690448,6.451793257809188,11.424684768883035,15.860197733157644,6.888927055567287,4.563380262873329,g
10.721134645810986,6.0102070890888,9.203274616537588,8.521981378074463,12.999512953996273,14.045203010184215,7.096347257645702,5.1690502468792365,g
10.64394662815647,7.029752540058311,8.620411808891063,8.92235648200631,13.832684084216174,12.243796109947544,7.204806156510907,5.985210353437505,g
9.934403273370298,8.127906689004405,7.366376825481778,8.498265221562335,14.160869601369104,13.703797236533148,6.915157971741346,6.609739653338866,g
8.576778244121916,9.274830473396774,7.498779957175327,7.153791436371593,12.440623122429583,15.161084774367051,8.034150471250252,6.690144859561376,g
6.908607542702342,10.393118679691337,7.6305734628794735,7.231192138180916,11.080494815779948,16.403346431071746,9.086950982240833,6.227706214661187,g
5.451469409521141,11.611012733673435,7.772455039746606,7.313351926237674,10.149213470826007,17.410774536667752,10.048916477857015,5.648810285884548,g
4.601500350392367,13.321812234087584,7.928870663586222,5.819191424550861,9.663586496526602,15.625057528426197,9.359343775579832,5.545313394572729,g
4.373754337911096,15.646204241159557,6.760062243455463,4.942154008397674,9.478303353681426,14.992707919765957,9.592051304901215,6.24843522811189,g
4.370223411323254,18.008882633729577,5.889009638366733,4.4108207417447325,9.100473941704777,15.468670819548553,10.56333989719987,7.562751171861137,g
5.700100609489126,19.54625552720438,4.765584647798024,3.7260989406692504,10.261908977971768,16.609937908218292,11.71116438027524,8.868896794116667,g
5.4372930571668885,19.8063450784988,4.3172297557932335,3.671256309538009,10.150435283730864,17.8666087986948,12.455135947981338,9.495986576482103,g
5.609280244149354,18.82948838647942,4.831681264394996,4.099778410078531,9.410968787086288,18.847438029520315,12.45989385926099,9.070581421936323,g
5.101000469834573,16.7933699852787,4.677734023344178,3.8247627856168633,8.140462899024222,19.430322942978336,11.687466163787054,7.635234556373268,g
4.15235236904216,13.973666960343433,4.096181222803407,3.0685960926323426,8.229762484762226,19.737672835952104,10.353110311283432,5.5459870979424615,g
3.0542806899140373,10.912161534887414,3.3846090288656656,2.139181461031909,7.482718197460642,20.002291060002914,8.840254509896528,3.270347343715855,g
2.0898926271141915,8.155687131988069,2.8344680576226873,1.3493574663124106,6.294068788014947,20.35794663771211,7.522708309001797,1.185539382924119,g
1.442302362144054,5.77505650630831,2.611155574663625,0.9038814187024824,5.213243818883843,20.685320379608903,6.553305408987184,-0.5592257380332819,g
1.1173807655432215,3.4596399320200155,2.678285826139359,0.8039365552273331,4.3767519113403335,20.64914411140546,5.801921744054089,-2.064435314993866,g
0.9615743583977476,1.1011149960742503,2.8532936341111856,0.8568730792290307,3.674446626556996,19.88942868260713,4.995038529723612,-3.576053653327892,g
-0.9185333997959919,-1.0269068158445063,2.9612243320214846,0.8253406943315668,0.9744078332516691,18.20302033263447,3.909777354198512,-5.311384783974735,g
-2.13664368022929,-2.6540326568803008,1.6050000032975178,-0.5904594347876155,-0.7541554848696366,15.636169039508541,2.5033434463541164,-7.294583923211043,g
-2.4830653487305825,-3.689802614796998,1.097029369906712,-1.307458964467107,-1.9849912502208824,12.521378673466275,0.9865157322793419,-9.266803243547137,g
-1.693582523428807,-3.949456702098093,1.714576026619659,-1.0061420787753683,-2.9664490179407865,9.441132359612407,-0.189463169404821,-10.731818882454485,g
0.36152604864439136,-3.1103289183506333,3.6445085958334174,0.49921901797028034,-3.0763133057546477,7.0377572760120275,-0.5355869425397488,-11.167086245428504,g
1.331072278090625,-1.1340722093083069,4.248594244687672,1.3045216028104836,-1.685408153246493,5.716311298358521,0.1474721155523058,-10.309281023701256,g
2.2021789682355757,1.572219574921964,4.740038585627396,2.0052677575175575,0.8417823534339473,5.4565633484007225,1.6104655466276026,-8.305494386650834,g
2.781999485876446,1.9351458140673041,4.942174433042428,2.3892019043719435,3.697855357368854,5.884352072805188,3.3452805387259232,-5.589639961010574,g
3.0567502467691825,2.275272364944254,4.88131259890563,2.4498629432859653,6.719447095613359,6.51631665886884,2.99237035747713,-4.88727000500753,g
3.173891754120185,2.824017425103522,4.731138297424202,2.376843212283535,7.3958525806783415,6.983291527407028,4.303977523674297,-4.184438026946002,g
4.7396774963991195,6.0633594060228635,4.658921209569011,2.406655953535097,7.930705201068325,7.123577531123628,5.432268916400302,-3.1278243960429704,g
5.721994961412184,8.630195231422777,6.4161826000712,4.002728781972424,8.224807012724153,6.936925144386649,6.530922489599073,0.27208924644829935,g
6.022301865142943,10.335305283079851,7.3317291605341,5.1348632074617635,10.342743399024686,6.4363584649585714,7.642146970480641,3.705928251505928,g
5.374643110022151,11.102835843481536,7.141296727979444,5.510694019629066,12.073972584077314,5.505701400306245,8.588835124064932,6.8022865388639575,g
3.54673097855528,10.699463848767069,5.582448750975523,4.8241826832513395,13.338559101476733,3.9098484561634237,9.016853117509001,9.054147675995152,g
2.722387393081861,8.960103475756142,5.114356169622687,4.753345593657702,13.559443781133373,1.4733596453258757,8.60282258475353,10.017030938324435,g
0.6257534913587618,5.316961129952608,3.219707762139636,3.8923295816103662,10.71465115812762,-5.496601907433535,5.103849141154836,7.497940556905526,g
-0.5417939124818789,4.342541930520624,1.8856392893863465,3.11551009037519,8.058304193419225,-9.399894500503176,4.332813502856083,6.654967370992026,g
-1.682828824383325,3.035421306911103,0.4221604334665473,2.159933970396234,7.024994635469459,-13.108578019642255,1.3078124751274156,5.144239537039482,g
-1.682828824383325,3.0354213069111027,0.4221604334665473,2.1599339703962346,7.024994635469459,-13.108578019642255,1.3078124751274154,5.144239537039483,g
-4.032466591808687,-1.0047962977414577,-0.9191828949747123,1.1804590403387558,5.38387542097272,-16.309821385139188,-1.740870863316926,3.0932553434507226,g
-5.271721655576059,-4.178366801291714,-3.570308245833645,-0.9814070261581204,3.6177467015953466,-18.787049954323983,-4.5339568462727,0.9045988697660314,g
-5.319166375790232,-6.126519121223107,-4.892855423779045,-2.2966623677268303,0.21972681279209993,-20.497624342531616,-6.9178754433899625,-0.8394488553622679,g
-4.276870271188135,-6.982673889405255,-5.056038646585649,-2.8143250183507886,-2.590342236466749,-21.585378250459424,-8.906518686781746,-4.007483927316308,g
-2.4445671767781683,-6.981800371845807,-4.378022429989135,-2.714450337792166,-5.2908108257770206,-22.30660219570071,-10.581003752551737,-6.653348815120552,g
-0.24017382235084064,-6.277312144573609,-3.1680760747621415,-2.210652965797091,-7.617774807767243,-22.929657708841912,-11.964832611433625,-8.759661401355116,g
1.954522557602905,-5.142821847557693,-1.633059477919499,-1.409417910882048,-9.106875231360505,-23.629307700833273,-12.965941623473295,-10.170306727422453,g
3.9404116429370375,-3.9079449006866667,0.18454987403061426,-0.2257769561376554,-9.764260199319704,-24.37031471949012,-13.351225697658538,-10.567066460777053,g
5.729763501652753,-2.52981210337054,2.3956303477087686,1.556892627275295,-9.561723849144308,-24.869188029924764,-12.762667902916055,-9.566591303157448,g
7.410524388704674,-0.5851257072130014,5.089194680895588,4.092927891407671,-7.897268751904233,-24.752503009919824,-10.877413313860378,-6.923070474222783,g
8.938186009468442,2.093360429178449,8.090551615250519,5.0985016649504855,-4.36050526669848,-23.84252236492358,-7.679705956861253,-4.898191594595908,g
10.031221023994117,5.0232396628862475,10.911748821457063,5.9606334847335285,-2.5538156366626774,-22.31960347667403,-5.586937489100474,-4.437672348223829,g
10.272982070368709,7.473557305091875,12.97494283382592,6.469838578597203,-0.9964240454376965,-20.615126843906562,-3.424869368383688,-3.966059862302946,g
9.358133484559401,8.999278115368854,13.896806082473535,6.54510785310421,0.3639706167172287,-19.149364883508504,0.30564793248152744,-1.7365956384533798,g
7.318525922221769,9.454747304372134,13.62286438760375,7.4653199023315695,3.264494705774468,-18.11452683838082,3.090367216450993,0.17558081794178867,g
4.584330475366695,8.871843768838065,12.413101136337577,7.407557459634072,4.976349196521598,-17.39174031073349,4.8320844755733745,2.8590313701029744,g
1.831611783135464,7.657842222578852,10.739973756200403,6.722020441508519,5.318276015622288,-16.612326970619513,5.736366246650909,4.4170629555409295,g
-0.3169065797828566,6.637531433069851,9.08252690791223,5.716455184586709,4.961076521983199,-15.366069754531017,6.167370661873872,5.007346939030817,g
-1.5715065792946512,6.47300644995957,7.673254942304967,4.48867433690567,4.942366552824597,-13.47088871703644,6.394999119812427,4.744359684198055,g
-2.0563896256384,7.098072073099024,6.411500207111688,2.9342875165684865,5.353069132346538,-11.099979977512692,6.4160419564680184,3.6397188669335927,g
-2.139736756571797,7.974084957389529,5.0583032452535575,3.085035178547172,5.293720784215349,-8.644176114480107,6.039269860671785,3.8157965755385748,g
-2.146974008602707,8.765847615037908,3.521787867337636,3.142891504558299,7.09037383759501,-6.44267901167334,7.137194502630747,3.8231862606858824,g
-2.168183774087482,9.496777109395762,1.959748003738018,2.9857037051122637,8.332824380141691,-4.62874109407595,7.946909647432307,3.411525837827032,g
-2.0737220228869218,10.2219889587238,0.6675663930932378,2.618527187317812,8.751564848099314,-3.181435084759317,6.59389277254307,2.421444759728535,g
-1.6868456462862256,10.934843068409542,-0.09079793231332518,0.9449034324626885,6.592059297942238,-2.0834545051224467,5.484450120117317,0.868078142077095,g
-0.9650802357995953,11.710285507095051,-0.21167162945520968,0.07988560089481564,4.585484426004859,-1.4538922245802346,4.7927094658917815,-2.211876230584711,g
-0.056983596574292326,12.535260984287323,0.18125361049459573,-0.09717075963919722,3.3097738604367306,-1.5726539820697343,4.458160779289565,-4.687714951820771,g
0.7994022859330745,12.999882082407808,0.7968130032788059,0.19129137860285317,2.7812187381398896,-2.749720565925545,4.227317050456813,-6.481078027081894,g
1.441984205781161,12.551709558416322,1.3783061452297969,0.8100188530036083,2.196975683041611,-5.092228360071674,3.8604223873983066,-7.521577843047387,g
1.8592079576160003,11.140344361275323,1.8669464079448912,1.7636679319924238,1.0244921715448263,-8.363506594668232,3.3507290758300896,-7.700265013788835,g
2.1064627989174567,9.299261977010847,2.3333773232299855,3.080289104609684,-0.26603021373962366,-12.089369140623802,2.9185479348718837,-6.922586475766687,g
2.165703910749861,7.537847573600452,2.7725380267403965,2.967623958203043,-1.0039366004326418,-15.806560460448514,2.786514896849605,-5.216399964964629,g
1.9115011410019331,5.988035494972564,3.040341234688469,4.52528297887161,-1.1727237544978737,-19.190333798172226,3.0151577227585067,-4.835891729175249,g
1.220957944007053,4.716658529988504,2.9940039094637454,5.749995139926457,-0.8860947273801052,-21.974716456257447,3.5680432265728954,-3.865183898596025,g
0.09992858635476712,3.9770494423478895,2.6140725100709075,6.452940024930956,0.3103954906339045,-23.846380934719235,4.4480773405128495,-0.5766714617887512,g
-1.3167383151099963,3.929609950020899,1.9523348227912933,6.626345768724745,2.7850992834630692,-24.495496474311334,5.685730421233008,2.923439739896395,g
-2.8978795191230646,4.400266239448194,1.0050459899712945,6.325416189249395,5.863046409965615,-23.795612349202575,7.1996450716162785,6.403472354120083,g
-4.65403561487487,5.114981417880868,-0.339222444106407,5.48990751010658,8.300632938683144,-21.958252865813744,8.697467781312263,9.355931536932752,g
-6.729365454339049,5.908845695286403,-2.2504788752207956,3.900001788192804,9.456063979350711,-19.538980009932185,9.70547455946332,11.024702408147894,g
-9.193631210535962,6.532780321223394,-4.812022199376246,1.370249608160114,9.343280581499702,-17.237773400414873,9.733558685208394,10.693298104449207,g
-11.75673742061849,6.612829511732494,-7.78907974591186,-1.9358792196565162,7.937995381700998,-15.543938133416372,8.552665845851674,8.102982164152436,g
-13.66605508077996,6.146029557252527,-10.48383449947806,-3.6658881176362046,5.3458173497940145,-14.460258460239192,6.42913934745777,5.920033168439539,g
-12.064493647114528,6.3642289346309,-11.502576306171054,-7.193020824251439,0.46140373042425314,-12.572343530377717,2.0591217697055892,4.994410773119918,g
-10.483507195076662,7.917386264464243,-9.195958250666859,-6.3677593487509,-0.4909297686572245,-11.491253878512898,0.6646930361384905,2.8691668913598924,g
-8.358604072587656,9.894106638113302,-7.953100082585417,-6.032431854859829,-1.2491286396430155,-10.8637630954625,-0.4121288909571084,-0.26962842152466104,g
-8.358604072587656,9.894106638113302,-7.953100082585418,-6.032431854859829,-1.2491286396430155,-10.863763095462499,-0.4121288909571083,-0.26962842152466104,g
-6.08363196314006,11.714235519182214,-6.498692298331532,-5.357881807546678,-2.3264686424529906,-11.257768020876345,-1.516098205378367,-2.7147071630845403,g
-3.8972754544056416,13.139137825381258,-4.9258027435333345,-4.474839827752138,-3.268494473803372,-12.870131153585229,-2.664151438700169,-4.467941708045895,g
-1.8290617967101082,14.190722582758024,-1.3196186295167867,-3.333561073619401,-3.4448171491994883,-15.359545709090074,-3.464220308666847,-5.145302414484865,g
2.100696379683281,15.142391635686469,2.311337251852259,-0.24162626512706958,-2.6122695875086626,-18.008668774439066,-3.3476189234452094,-4.180105637806949,g
5.51741178586374,16.484278455642652,6.038149861465262,3.2115009070895026,-0.5143161046303875,-20.129636450763204,-1.9521307054050567,-1.2539379871026806,g
8.007549026051777,18.402993535903285,9.443002246240786,4.943605778191238,3.109972917497059,-21.484189809831822,0.5471865677188544,-0.8288831645415836,g
8.776060553020697,20.211927068504096,11.616118924263652,7.495392619236415,4.891152522327519,-22.396432298956714,3.4088480048275613,-0.352204059334109,g
7.104369673831686,20.696386908394757,11.638944184702169,8.24892062414533,6.174965554117886,-23.411557762449537,5.718553469272512,0.10350946387778229,g
5.308836255437841,19.2054189828009,9.210934378621328,6.775351145200387,8.055777682211481,-24.762944219042694,6.947774495441597,2.034576160621401,g
4.785158218717623,16.203822646210412,7.14823491097282,5.227358474703605,8.446734512209387,-26.112402243999515,7.202073884474183,4.42751073186808,g
4.2190790421768805,12.746722624031353,6.6559611528714955,4.824494616203049,8.40980424290711,-26.76291811688288,6.976019954470873,5.5859460843060305,g
3.6789742140643904,9.719159345902025,6.179629743334807,4.420715936493254,8.282099588471397,-26.13081664339338,6.701071626997191,5.858966998212241,g
3.212108527937911,7.569675146047184,2.1187635172342967,2.5618510626950393,7.724485986940435,-24.133984127496415,6.464614969613176,5.421854454120121,g
-0.46261592479944513,6.277359011125902,-1.0913910347584008,-0.30836625080257535,6.528903329464745,-21.28539375194078,6.0179490953588815,4.198847090288499,g
-3.151880597231067,5.320865645774605,-3.821228656680103,-2.857468487264783,4.6237816444202995,-18.43671982730409,5.000177724218167,2.0303355264600382,g
-5.165267028361616,4.059025369897997,-6.362159626780338,-3.639541583112951,1.7575731989032406,-16.282256665696174,3.2679382488430377,0.9276934724073083,g
-6.392160987692487,2.508787342783853,-8.50811292788026,-5.840803554387042,0.7796563152432924,-14.947430160711821,1.1319568543840393,-0.33779093143412725,g
-6.287977552730834,1.569236716558721,-9.565019614449765,-7.123521698905321,-0.2135674315407723,-14.01200046013459,-0.7476982610793904,-1.4957639735371147,g
-4.244862765810447,2.210749629602941,-8.819228396108596,-6.838341433827567,-2.2676108325295683,-12.966756716075896,-1.7989887504845807,-3.822564621798711,g
-2.4464760704392434,4.5792830862295375,-6.04607466553385,-4.770379820613081,-2.878830447435445,-11.693002422320902,-1.931345645488868,-4.940990586826845,g
-1.9336684994141475,8.045088726572226,-3.861245599303352,-3.1414607477353895,-2.9561211428601073,-10.567820707024557,-1.534699497014406,-5.069061891700801,g
-1.3698123496345591,9.062048900045236,-3.3644872111236688,-2.750299464233559,-2.914674924746511,-10.185139582003089,-1.1525292628800767,-4.701112042030746,g
-0.8104331656936534,9.552086918452753,-1.0891067848139377,-0.8694576165153489,-2.3303391129124535,-10.962862311635416,-1.1564075335187822,-4.29745599391157,g
1.0720308228703777,9.394453954678994,0.5723495248233565,0.44146753039098,-0.9314590654049318,-12.87598807286555,-1.60088588615946,-4.061945932802331,g
2.328013457567636,8.79881269769516,1.780274618061701,1.349801446183628,0.9709950606487612,-15.432136659012466,-2.235870192951623,-3.8929674209584126,g
3.2832061857300623,10.571251948347044,2.8279592390963844,3.764324611306163,3.1442455198229884,-17.920201506669322,-2.6582618415140957,-3.5112666124989906,g
4.090583195428661,12.503857317975568,5.721695997830632,6.091958218369304,5.648834788297799,-19.808848510439624,-2.5786570967179134,-2.690541516952129,g
4.567896165383013,14.468311453089095,8.255138198708883,8.310727620538337,8.17779281938971,-21.002869395513194,-2.0227101715239217,-1.4351205499982211,g
6.222984110487863,15.855648237612476,9.968206400774344,10.124785827287527,10.03808532099752,-21.748223757828782,-1.2648785304115435,0.03225455290080057,g
6.2563784060319145,16.254458044100726,10.361407212048913,11.139206416515592,11.151467894448842,-22.304807362215985,-0.5626618168395873,1.4539268228753193,g
6.928930005376417,15.705948161409523,9.21584110392663,11.097574254503032,12.302848863760719,-22.694372855820678,0.03212482471019481,2.7337345024644804,g
6.881644005050911,17.158124574699805,9.20247316828853,11.85465205854749,13.94813279930743,-22.679026365162805,0.6590447500730556,4.004740381045379,g
6.359667039952516,18.258164683584603,8.764593387981265,12.216199809372828,15.462256989779718,-21.903477443954273,1.54210047036057,5.537009389401485,g
5.716824944005702,19.085557575927808,8.193906233475412,12.397116089981553,16.04700918908045,-20.103506154252464,2.8734935104485575,7.532183549329529,g
5.228091710792142,19.861522147562788,7.708277206244139,12.567286242782178,15.71278267458124,-17.31665135775416,4.654455987280111,9.902585046298016,g
4.942158505434503,18.285568589182844,7.300505014341124,11.08718405543753,14.807564017202882,-13.966151551321047,6.5600887495566855,12.190553558128645,g
4.707469336987355,16.59285520800999,4.894644179189138,9.523484907423741,13.251042124521287,-10.687293602313567,8.028408535095707,13.751961814934512,g
4.3657372551022275,14.475957565664725,2.3436566092675806,7.646855951090112,10.97987522418703,-7.981828597205992,8.593696156196065,14.127907286602355,g
2.025851918635376,12.219077481361884,-0.21203930832212273,5.540881502265139,8.633316982570783,-5.986585055705133,8.173583207636096,13.32357223324288,g
0.3582668495018286,10.3586456940947,-2.319283254435571,3.622205743263219,6.960664171613688,-4.5323678969882755,7.045048813532008,11.75783597842951,g
-0.19878861321615293,9.168344825905958,-3.546279747471659,2.37247507664219,5.850414991934014,-3.3853369552298167,5.579722879202366,9.93118786810153,g
0.4697302714236701,8.646326510825567,-3.7740889520527565,1.9891927215098821,4.685601604869409,-2.4569281315864453,3.991592639886894,8.093720870103152,g
3.7315917167266948,8.901288202864887,-2.612740413585594,2.6152838918644767,2.175210411646746,-1.8891732514979966,0.08046966029006644,3.946037326458241,g
5.1245847438183025,8.778767638146366,-2.1974914811625035,2.7440106834446185,0.9806200922633431,-2.661560604943399,-2.6624518427309996,1.421263464647184,g
6.092802341162782,8.080776611032169,-2.0459301327574364,2.6166459980316716,-0.576847303226399,-4.017268976537198,-5.829260315104541,-1.0585445015478083,g
6.092802341162782,8.08077661103217,-2.0459301327574364,2.6166459980316716,-0.576847303226399,-4.017268976537198,-5.829260315104541,-1.0585445015478083,g
7.0082092477440785,7.281875493126148,-1.7159847117199003,2.5755535092945405,-2.062390183349499,-5.415676369716569,-8.807803208551885,-2.8977635171834573,g
8.367591098550438,7.080149334154134,-0.6856282414825767,3.022696423052053,-2.4144713598194225,-6.186629464087673,-10.803421534134245,-3.5828859042674877,g
10.392877735269304,7.6344049785016725,1.2229561299912661,4.114032846047752,-1.2582600481086297,-5.855735596472301,-11.279557330363831,-2.974503941817221,g
10.693654243453311,8.513047820753481,3.7229459137058,5.647329337988146,0.6984706486244571,-4.312988801851105,-10.212678150393634,-1.3550908718634491,g
10.584547246026618,9.220708121938507,6.254046091647412,7.185614670805978,2.6690021246886433,-1.7679932939418275,-8.028358956570612,0.7620056206386889,g
9.904646817916088,9.447929168976483,8.263794696842684,8.31054308408763,4.380665976107872,1.4186277184503828,-5.350810601790701,2.8957428480624072,g
10.690123361894308,8.989297445038158,9.448592705541174,8.851671269898983,5.562734838771393,4.953175617561943,-2.707584872021063,4.78375223915231,g
10.725019856466407,7.914825480134081,9.90621835558292,8.963381322097417,5.847337239239343,8.792400737648537,-0.2797951703976455,6.4330228494442,g
10.437826461232339,6.838259236377084,10.070251962169506,8.994147187829352,5.629143655980199,13.127148040094108,2.13491134472733,8.016796798298355,g
10.192241271073785,6.544366590994184,10.358212415135114,9.21146623817402,6.1494458792053015,18.08481701621689,4.816524800454262,9.643022077870791,g
9.995261323055413,7.156018139827003,10.779136578720667,9.562251257288885,8.03096319339932,19.816319665586935,7.672592458309859,11.133779915608521,g
9.487350042982175,7.925990219368193,10.885276719305185,9.65832886677094,10.257870658876977,21.081580456677607,10.085548567236474,12.02064485448922,g
8.243480915989968,7.944871471496451,10.133024493467548,9.030002157110992,11.169701646575579,24.495358298999605,11.248635038387146,11.821746144975412,g
8.316435208986025,6.8247022343356445,8.322477824718646,7.483374068959729,10.009664585670984,25.901637544534434,10.700853723082982,10.412082800380427,g
8.222037612411345,4.723957420608122,5.784048463477831,5.303097373748075,7.096278354057837,25.31097299711636,8.635615673317208,8.19649588355119,g
8.274292000374759,2.150223502184886,3.2516248018701446,3.1470221065389907,3.203561632933192,23.289387723792807,5.820861091644931,5.9475453810272985,g
6.840500462757845,-0.10101917796070903,1.5229068253893057,1.7003356793625664,-0.4918835882767677,20.626334711354776,3.2252935933406297,4.414743131984841,g
6.573116869127193,-1.2613511586029325,1.049067518194142,1.3232638693787844,-2.489711528661516,17.91026154788135,1.5362619760862954,3.952756159417244,g
7.278339765787026,-1.2305530739598605,1.6852021860495583,1.918098876527429,-2.0704114159186395,15.26637497640778,0.8272630186471928,4.398147094667975,g
8.477804969394072,-0.7355355706029593,2.8227504634339375,3.071359406450818,-0.22372477476881505,12.453512913781578,0.6299745545598597,5.268050829387284,g
9.709164258177566,-0.6122024833866424,3.8251042913395943,4.331210360463843,1.2693998572891165,12.791092401165926,0.3839954120594108,6.126445824659983,g
10.716261015492497,-1.0883245048652368,4.385725418517705,5.414761275545144,1.5794950429520613,12.830530986029265,-0.12362432606689211,6.831709583531776,g
11.4361195186046,-1.9128579380412574,4.545334345999963,6.240822404069631,1.092537972613325,9.46740060338406,-0.6882370551579766,7.49577748421117,g
11.876053909889361,-2.8628337481208077,4.486456705493245,6.834742817229362,0.33459634268668187,6.8267864783494385,-0.9382108027338368,8.255907846699928,g
12.023004627198999,-3.799030466128579,4.355202369295943,7.2171211412242515,-0.4202484839200514,5.361401206498849,-0.6039670156314696,9.0990734162531,g
11.832301906985915,-4.486566783058631,4.176940193917654,7.349528758564498,-0.6317745224351409,5.246123967328706,0.35423552695848903,9.863235053537192,g
11.254477636308986,-4.813714607319398,3.824708386552068,7.1440109757943375,0.300625578637489,6.319620282921515,1.7254072153312237,10.3491892769607,g
10.259266625717888,-5.123943582271064,3.079016555316354,6.50805137879602,2.0344460753479527,8.158992274870531,3.121822691443813,10.421715323390496,g
8.85220840848146,-5.963360059859682,1.8014491122848468,5.396790522265451,3.3065222633547586,10.29285380903291,4.169733638666118,10.048681160550128,g
7.091406030644433,-7.49574838653587,0.07928661308716212,3.859120252473373,3.284492452952796,12.422703145209839,4.709422352402494,9.291610870366435,g
5.104708993979498,-9.412590780804127,-1.8093968256775366,2.0684673910838023,2.2815915357734364,14.48779174661612,4.830774747980652,8.275183760471311,g
3.095782654146847,-11.312019357222715,-3.546519548881281,0.31262050999409324,0.9852357108327514,16.558930413303223,4.74178734481091,7.157527125904638,g
1.3157638359337078,-12.831403252938923,-4.876024658809804,-1.0864606996617276,-0.22885908896223892,18.677883820043103,4.6293065372110025,6.106309962675477,g
-0.010582692834224795,-13.513753471082126,-5.638536050354231,-1.9033190473227095,-0.9522746638234094,20.734580146801896,4.588874336447318,5.260612824430071,g
-0.770201824092713,-13.03555455438394,-5.817381760235923,-2.1080372008446586,-0.641418309972455,22.421464197841715,4.570993308327192,4.666703120980687,g
-0.9983028873515764,-11.694508894150587,-5.563409335403592,-1.8612002508938974,0.5234024655373369,23.316079515753064,4.357925744572528,4.229176281938427,g
-0.8425459282336286,-10.309981913598557,-5.1055004520605465,-1.4159735786583223,1.3485695731550391,23.100022654176815,3.678073944585344,3.746306274543552,g
-0.4853459233430815,-9.46203076295295,-4.602172326517203,-0.9969676855267723,0.8852950210734367,21.7799783060082,2.434993311385037,3.0408895882281612,g
-0.060179707972078854,-9.0482050810109,-4.085126925021237,-0.7073407445073543,-0.4566777448229121,19.730401131273517,0.8466566750644784,2.108681256279501,g
0.4196592372223648,-8.635440132534447,-3.5038077030583756,-0.48471656194245094,-1.5757768389652351,17.537194953495565,-0.6340899634385785,1.1807138439748528,g
1.0799339104306398,-7.923925172975041,-2.7594970461712665,-0.13557195446200704,-1.9341028976493326,15.782204486285014,-1.5236940507480008,0.6446171440708139,g
2.0908266451424202,-6.783334186337425,-1.7347930385066832,0.529120839775315,-1.561325836528056,14.874230001712226,-1.4987775486311472,0.8426489619566805,g
4.955590905465172,-3.7955652381059153,0.9189994511593256,2.5689751490658117,1.3454958682342057,15.761235070996946,1.0075579167157434,3.337440360112081,g
6.053114346382562,-3.1563029404703156,1.8250271062762689,3.2999567963902003,2.8855359814923696,16.976060028632617,2.611071750465503,4.813655978089646,g
6.349362957666214,-3.703144126360981,1.9386132053221186,3.444559646904095,3.3263845915038233,18.2595819516007,3.881875315591151,5.886372509134338,g
6.349362957666214,-3.703144126360981,1.9386132053221186,3.444559646904094,3.3263845915038233,18.2595819516007,3.881875315591151,5.886372509134338,g
5.764177883605559,-4.977801744405066,1.2713225354776805,3.0521047922769884,2.8750349700385582,19.504024704471725,4.811819646538927,6.547046398883421,g
4.583694176962652,-6.237086410949784,0.14208695704346824,2.431775414166755,2.442801843805477,20.721719587786218,5.6322984908935805,7.071476642537149,g
3.243957025609434,-7.258090958414636,-1.106041183986472,1.8919581439866877,2.253116908444585,21.84075602676402,6.455202537416926,7.6638875918119655,g
2.0566710879885344,-8.372365236175302,-2.324025789026957,1.4852000047912957,1.642376478277106,22.603944536793154,7.067892706498482,8.161954300103279,g
1.0817668421948468,-9.927772033461995,-3.583972449800445,0.9717259320156062,0.21100417046531614,22.633200704633385,7.036598613746106,8.067169811581497,g
0.21753986997915647,-12.050911029541961,-5.0597145386652285,0.03889383643013433,-1.7120281016560532,21.58009406024325,5.9718721845779275,6.878686775867161,g
-0.5814573793779404,-14.748647372598302,-6.816237232005942,-1.3924546775353053,-3.8548269088593337,19.295477443930064,3.775570871770899,4.479682705241163,g
-1.1461422900637654,-15.031506236153941,-8.614965219561421,-3.0229736488507397,-6.3599544245476745,15.95941401621847,0.7681136070771156,1.297692410531069,g
-1.1516157327279735,-14.945408212701835,-9.946465550036029,-4.3261989874810265,-9.098830503769442,12.05582576970744,-2.4095394234974705,-1.8938032657337946,g
-0.372556493082208,-14.214537542546008,-10.36190673840977,-4.895835532954631,-11.456622277211313,8.145892392180803,-5.139438991781438,-4.416364187793427,g
1.0839781023881652,-15.221804127083137,-9.81704895462762,-4.713099355115691,-13.169368131135736,4.617396833714598,-7.168085716362147,-6.040494608451672,g
2.7916308786465054,-15.67588343141843,-8.667121884396284,-4.112577878444608,-14.634454622047244,1.6500232535504231,-8.611933472063237,-6.962017127264625,g
4.258966870232369,-15.782751116004766,-7.339719932014811,-3.4840824733443236,-15.97934376331863,-0.6138485167796119,-9.636875200153742,-7.442483074195664,g
5.19975591527289,-15.350007289060269,-6.051917495259134,-2.974402086286525,-16.558329982741224,-1.9383746012694794,-10.184404318705699,-7.468164337172465,g
5.6111408555523825,-14.229722990644964,-4.795466466707849,-2.4337127311228697,-15.90019939292256,-2.0514048574929897,-10.005089974668033,-6.735842387716578,g
5.64797260123823,-12.57676505783422,-3.4814765685821234,-1.6234158816580695,-14.478306082697532,-0.7921872904900349,-8.876249127907034,-4.937814875388783,g
5.435451467073405,-10.551764597889298,-2.073255277770427,-0.4881339637420977,-12.906223266857486,1.7967643296266869,-6.763816761970878,-2.068749343901648,g
4.969900581952414,-10.912985607098323,-0.6620569372315025,0.7354287798115223,-10.9579334810288,5.466081212875147,-3.864813455739808,1.4850139249625673,g
4.167491229990924,-11.12452183736775,0.5417714645972675,1.6503737510240462,-8.11613278693955,9.82994063120344,-0.5632459839688149,5.11200118668142,g
3.0014926793246652,-11.231623404473686,1.3401641157900817,1.9508216778086767,-4.636027175717681,14.497184936833563,2.7043006300380203,8.260099319008603,g
1.589363777092144,-9.110210769030193,1.6944089019416129,1.5809605192367147,-1.30672530685558,15.666059920492184,5.611099715725226,10.63140823519312,g
0.13625888609356113,-7.497794887575014,1.6934739507141163,0.6874594993567957,1.4850104475237373,16.64960495590077,7.967824278028961,12.155113923396318,g
-1.20519942436364,-6.500896227522636,1.3671328538131116,-0.5537043298928065,3.6902469834927496,20.454909834699087,9.59286579268307,12.806444729851313,g
-2.407519895379268,-6.49649522559519,0.6103738176952204,-2.054831772933211,4.934205860897139,23.128383884449846,10.24979719450152,12.491955654418117,g
-3.5111986106153013,-7.713179429324856,-0.6591239008128683,-3.7854276677741145,4.806742514302122,24.22923223116595,9.807139720339931,11.138293242986375,g
-4.529261469828485,-9.805329869820897,-2.3276708826217716,-5.6625367636793795,3.6738289433078632,23.63791080347916,8.435984240920721,8.878334371724211,g
-5.4265252832219435,-9.420735687206449,-4.125861153983298,-7.496110149745786,2.341589989866759,21.593906465869814,6.566927100478995,6.112068122704387,g
-6.172651852778798,-9.064240065990603,-5.806386618381529,-9.047387884392494,0.9430156402180898,18.51611497540104,4.629451253301337,3.3573622229878923,g
-6.782402403646168,-11.33312326759184,-7.2457480777506635,-10.143680982894725,-1.023969575598933,14.794468347942194,2.841299228491457,1.0150611334601005,g
-7.285851232591655,-13.490600793833616,-8.423103976650038,-10.744701657266408,-3.5411491306910627,10.692511976792863,1.1986139826760152,-0.7689578235002399,g
-7.650485953594396,-15.352965633361894,-9.354670591250748,-10.90238901038206,-5.8211094589584,9.890062535613893,-0.3965017816282964,-2.062152242931005,g
-7.7270574905701706,-16.81971349088224,-10.004161844736775,-10.656757322175924,-7.351676155136285,9.046310040228049,-1.9661234892087527,-2.975087673802072,g
-7.291895298211513,-17.723615917514884,-10.193255040921873,-9.980076722747873,-8.338792612669767,5.2084902180072294,-3.320322307131493,-3.502188839830739,g
-6.198927043964467,-17.570950131483357,-9.64650826314471,-8.844168044868775,-8.866745064813308,2.40378385087024,-4.0898361777205565,-3.517321177385182,g
-4.5456984412556825,-15.873768949181397,-8.230263254140112,-7.358143433693772,-8.4823561533032,1.092012709809628,-3.996286955073713,-2.948563625256616,g
-2.698834929852686,-12.813813945957255,-6.170175439009967,-5.832944361841369,-7.047179479606338,1.2940710141054264,-3.1503026665263323,-1.9739405987766179,g
-1.1199264220975702,-11.989342366620575,-3.979150665520598,-4.681364220085807,-5.256223797694331,2.5599109728983964,-2.043529483797657,-1.024282500835391,g
-0.11676071494434774,-11.407583433612311,-2.148942494893505,-4.2124894723659825,-3.7776380958330322,4.264319355499959,-1.1979361755693503,-0.5506811064976886,g
0.2817241780459983,-8.781148481576531,-0.9159109267282176,-4.477537634579259,-2.4844997559240714,5.9720135899967,-0.8060829395031245,-0.7451684349240973,g
0.24517150991297684,-6.781977647435039,-0.26634863426806926,-5.28375632682988,-1.0558652208592751,7.604102179687746,-0.6645681513006965,-1.4448736838498892,g
-0.05482918776241874,-5.365340794358726,-0.07549258013664675,-6.362478768071019,0.2710327331236046,9.339845461726812,-0.37883762122971004,-2.278073962181445,g
-0.6010743196925086,-4.357258530102987,-0.24179209905184962,-7.560279788688588,1.1603874907267087,11.346763728522717,0.35939185903176624,-2.918723340278677,g
-2.9955231778694333,-2.9336337687571166,-1.7453137496804145,-10.427580778586954,2.5440819635160734,15.393427658103088,2.9987533587627375,-3.368514900857035,g
-4.903926682677581,-2.9919443281028193,-3.149639147561494,-12.034407966611154,2.870629330375033,16.477444985433827,4.2912308659745815,-3.3248003232122585,g
-6.886658871240897,-3.8247575743502993,-4.692058280889754,-13.346690052484579,2.2962828506555217,16.555458576154745,5.33890998547496,-3.0273595548741676,g
-6.886658871240899,-3.8247575743502993,-4.692058280889754,-13.346690052484579,2.2962828506555217,16.555458576154745,5.33890998547496,-3.0273595548741676,g
-8.453873146612747,-4.94783873674894,-5.905457233114135,-13.921574396349296,1.2120966519538636,15.831682642930156,6.304050373825459,-2.2605745660756833,g
-9.320252967737009,-5.765315733952866,-6.496924828694968,-13.548251443426006,0.5064323310942914,14.653155771839513,7.338221420605845,-0.9417547504562297,g
-9.59679062771788,-6.201676941364989,-6.58627897422722,-12.410263398741947,0.3402838108125548,13.145896284572009,8.282935390045187,0.683663224491176,g
-9.686517403950301,-6.61392808594839,-6.57337558240378,-10.952538414208027,0.10214020457727029,11.113202276617923,8.71437287310136,2.1343852508733345,g
-9.985965015503988,-7.328705088169559,-6.800679762076362,-9.566146511544934,-0.5662676738331855,8.241464662318322,8.275429314493072,3.016077009166591,g
-10.646443636830826,-8.5597496547949,-7.348028839472964,-8.361842082076516,-1.512843712854376,4.389097500191673,6.937604534158656,3.277750259420242,g
-11.559317869224135,-10.53809410169184,-8.066902546359401,-7.212381430262214,-2.7445082037538286,-0.24974119526376376,4.9887015592836175,3.177492602720237,g
-12.52422903437334,-10.360499040332488,-8.732493421071034,-5.996930193775149,-4.424452275872314,-5.171142581982275,2.84135466351202,3.0173803232456553,g
-13.42352568041853,-10.262646961140785,-9.189346302434538,-4.801119546041361,-6.087262914378498,-9.740753714654037,0.836686186804722,2.900748145048073,g
-14.243793508348702,-10.030845986578694,-9.411703208566092,-3.8745244099036276,-6.754373763668082,-13.410158334907397,-0.8514712115085992,2.7142869209766673,g
-14.937164455767007,-11.999823307562213,-9.414161247544799,-3.387684980162984,-6.141882550602174,-15.81877146112617,-2.156119584395102,2.3267834233678246,g
-15.288554973286768,-13.06078729178268,-9.081304484419068,-3.239470696841925,-5.027967889967115,-16.74976666755605,-2.948652622173035,1.8046077934796199,g
-14.974879350117826,-12.954949623911308,-8.148474346194808,-3.1239277604308677,-4.115520268590421,-16.08720124435211,-2.9693082270506532,1.423354131948812,g
-13.805608282293178,-11.373496527409,-6.436195419575403,-2.8002951452037737,-3.2206069118278022,-13.890694596985776,-2.0093654118381963,1.4456194331257735,g
-11.916455282522719,-8.39498656578031,-4.090243351301152,-2.298100284169679,-1.8934472062023768,-10.480702533996302,-0.17662152476412202,1.8790564749708412,g
-9.717202638237698,-4.477634345653852,-1.523322106487199,-1.8618973514220234,-0.08263922505693903,-6.364109694833111,2.0852870888440256,2.4620451322554557,g
-7.653290899539155,0.03334298623202723,0.8689037639031774,-1.711223299643726,2.2537995779537896,-2.0490549611532867,4.267302959071875,2.8841436947980394,g
-6.019226083035993,2.085117926833123,2.874491326788724,-1.860674593373438,5.413801405261161,2.044272428865388,6.0485660866771305,3.0050831250992163,g
-4.961409050444002,4.024554400956638,4.388819851066045,-2.1508639115519275,6.755971895927674,5.528045715017738,7.304323954028985,2.8709319287881727,g
-4.585688446763592,5.59048561700172,5.3003573339046595,-2.419651789196651,9.857015334950736,8.012513087245983,7.978403182259761,2.566732186953339,g
-5.007611745201087,8.906741910130552,5.506993800353724,-2.6327062386616027,11.20500758509499,9.196242655715485,8.020168691295448,2.0876672547955435,g
-4.149101145350429,10.886353010734442,4.986997758317573,-2.870465319244505,10.99259451625569,8.973501419767263,7.394380802142581,1.334594733195853,g
-4.046411155916917,11.631527275795547,3.816812582240697,-3.219182289861228,10.15390983940041,7.429037074024147,6.084875521821141,0.20100153019759973,g
-6.538733526033111,11.152161393645297,2.164687010740992,-3.686050304319963,9.041309002174142,4.7465453123436365,4.11209048559253,-1.3311780336424723,g
-9.02345517251332,9.541315072799554,0.29029328262188014,-4.204705234310433,7.370952775556392,1.1291200763961728,1.5943610946975049,-3.148264642128716,g
-11.028936381381776,7.182053363328063,-1.5056743963907022,-4.691036212209816,5.075733019342458,-3.22736977604528,-1.2319392739445605,-5.040132428715173,g
-12.182287215400745,4.505086970808574,-2.9706921204242205,-5.065344151723304,2.338422612896159,-8.097146255064388,-4.0941475474645745,-6.787170142183543,g
-12.224030846150395,1.7635454679207896,-3.907963478514964,-5.219292368029494,-0.9792684188242611,-9.620088959774062,-4.984738813941601,-8.22585416064216,g
-10.969227005588863,-0.7019853477364295,-4.0989380576483025,-4.996687584211921,-2.5999282497615654,-10.738097077457285,-7.254858909568691,-9.251257424463516,g
-8.332031438526775,-2.2472009996146642,-3.323864477352501,-4.258495407858377,-6.586848197413947,-14.224256660698765,-8.917476931740385,-9.799532678063219,g
-4.4432497488638285,-2.3531844067803744,-1.5482397987051741,-2.9999511833323376,-9.311901021273162,-16.100686623183414,-9.848605338538842,-9.863801008613233,g
-3.9837834869964213,-1.1357408821186306,0.9530037784013079,-1.3992865543729234,-10.396359872596673,-16.280998946198313,-10.099775199268198,-9.509912258448145,g
-3.510816914895782,0.9130786268400201,1.6860598445697126,0.27993498483666174,-10.475032127974659,-15.007122715103202,-9.805602988733376,-8.822754892656626,g
-1.1289041538402826,3.5796348101259285,2.3324711868475845,1.8668301688443893,-9.96003447383224,-12.553605798265794,-8.974366672564738,-7.810580787528044,g
2.5455410213486056,4.06801913198572,2.964158642207191,3.38148481384198,-8.499824162199353,-9.031144854870366,-7.423772424865723,-6.382927836612957,g
5.35428451942723,4.982689196857345,3.6680929073125483,4.953932491186294,-5.872897352203059,-4.449258790935891,-4.948584074645775,-4.450776382906797,g
7.34944591299431,6.209741498511771,4.430238382822638,6.621329084820152,-2.5464595744754575,1.0613377035419813,-1.5431059608836626,-2.0636561521711823,g
8.500746247989948,7.551855748992101,6.959098126656952,8.16487115563422,1.0155022233929236,3.5406124629445217,-1.1440088288878756,0.5238611833707603,g
8.569338600577598,8.719583968476666,8.752474028216161,9.116380876949753,4.781132509149793,5.648465953022391,0.9735971904380799,2.881126290456858,g
7.17112990064295,11.642222734161505,9.135511581002309,8.941687887374973,8.39701052387096,9.757484706075697,4.151822125702386,4.500212768520089,g
4.015594148466937,12.927060954578442,7.573154770883233,7.293035725245202,10.746904199039625,11.478494320157154,5.740428670778366,4.941905050035074,g
3.5704729335359837,12.336035922274487,3.999492502661915,6.09428059676853,10.900601331762008,10.486177760811927,5.393260860013512,3.979980271993148,g
2.5309073126717556,6.808384677675749,2.949502189905752,3.077714551458299,8.733725165313562,5.500284753447785,4.703519348951128,3.4982523975138955,g
0.3707757782570301,5.4103630871247095,2.390405992261258,1.6058282622413578,7.794355918417911,3.3470124769946006,3.7505826776536666,2.958530593156824,g
-1.2744723515132548,3.7349790191197094,1.8785513397487805,0.23580835890564633,5.9457883793317885,0.93478872811264,2.3237957622391523,2.1088320085810035,g
-1.2744723515132548,3.7349790191197094,1.8785513397487805,0.23580835890564628,5.945788379331788,0.9347887281126408,2.323795762239152,2.1088320085810035,g
-2.463939796498272,2.250314469015603,1.452137647187985,-1.0102366100310938,3.448144548246584,-4.628120506751091,0.3955808664117684,0.9018374141733284,g
-4.333983081294833,1.3314656789698156,-1.6898536480068735,-2.770085955511056,0.7576482644752435,-9.633588917981822,-0.048862269769165856,-0.5569277300617506,g
-4.717618791019415,0.9709536211025476,-3.552693023205112,-3.174167258227875,-3.678459498951743,-13.776141536028666,-2.0992822085823364,-3.0700058356232667,g
-3.6962437530922982,-1.4616673410684577,-4.049789402671528,-2.144212386077837,-7.175242910077941,-16.66549163666374,-4.890414714788479,-4.100473051097008,g
-1.370443026917741,-3.145745185394594,-3.068146332046253,0.27260753569214924,-9.36953568914986,-17.920804439669162,-6.006648659974561,-3.455268846809936,g
-0.2211841724831955,-3.924233049853369,-0.6236361217565902,1.9485433660023557,-9.525356182666615,-17.397805157953496,-5.1362842217457105,-1.1241721850151056,g
0.74080987566778,-3.8913729527413663,0.4251165168207661,3.5929671646439774,-7.596818278782537,-15.344996381036271,-4.34733980873501,0.5378657266015718,g
1.3797369323729478,-3.2712094329033277,1.446774242824071,5.032312263724462,-7.48996870608768,-15.61734068800872,-3.019924794435711,2.379196280178694,g
1.6017890002578592,-2.1571565001140427,2.340429325509162,6.125419107569721,-7.225092493788184,-15.857073817188354,-1.3389448099839512,4.252054068818008,g
1.2931515629196921,-0.6982338885417476,2.968777915874356,6.740524025820788,-6.60369967254929,-16.27001596500981,0.48182670938251404,6.006639831483495,g
0.3226530700921909,0.619182775790639,3.153489213058143,6.7792261655899635,-5.567685374981601,-13.918513610332132,2.221913811767185,7.484695884304242,g
-0.3046103693218074,1.258250856383434,3.697456676767357,6.956091587170297,-4.511960648429491,-12.352235087868722,3.680018598983004,8.5404202106078,g
-0.41112176431895264,1.1476060655587859,2.7800377769632343,5.6703933889523075,-2.0789784152232023,-11.561505182703005,6.3428106033574085,10.159357902326803,g
-1.3015647479609107,0.6026329770446246,0.7262360189770024,3.207061307474581,-0.793989573721476,-11.55683008220706,7.782582740206602,10.155964961909117,g
-2.5466713745888434,-0.18009068924646754,-0.18359191333849498,1.6651063549948806,-0.4154329215732105,-12.45173499241955,7.880410365959953,8.72480257507316,g
-3.777376597173027,-1.188219588869703,-1.216160372810042,-0.04222895187626143,-1.233349211258139,-14.342663422593796,6.567171892090303,6.1592358689575,g
-4.755739458163552,-2.2051645753729137,-2.247536170133,-1.6823358463947877,-3.2475431630739195,-17.097521384195193,5.786146397277887,2.815348889479602,g
-5.359204943078305,-2.779741493646355,-3.199832696820791,-3.095870222019278,-3.276800478856547,-16.84387098796271,4.508530749639074,1.0367749622748454,g
