Fz,FC1,FC2,C3,Cz,C4,CPz,Pz,Inst
-9.226483974188794,-10.367026171360461,-7.270956327852133,-9.791461877922844,-3.0124698977512856,15.350924336640654,2.7820874679457512,-2.03476119054588,g
-7.232560659622853,-9.799301000322366,-5.8483433049834,-9.09141694669621,-2.77502840643121,15.854369347369346,2.961600615554585,-1.8845547863037573,g
-4.8991931525975625,-8.783271940452371,-4.217318597980457,-8.032681019266825,-1.5510052380414945,16.3819879297911,3.117184722989188,-1.6653195716897433,g
-2.5427913565796487,-7.8952361490330585,-2.7671839217707785,-6.805372787434766,-0.1589797978945968,16.593297016220802,3.0762831173076295,-1.5029015700532453,g
-0.4219757226616599,-7.374103017539246,-1.735064671510461,-5.547564088100394,0.5711230959557108,16.29194803869713,2.7837498451854152,-1.4110878021347746,g
1.3158865415930292,-7.233938505815454,-1.1884798443920528,-4.3620575550137906,0.24613713599773632,15.425400421794228,2.2572733934372735,-1.3519576935280426,g
2.6159488388315024,-7.503807438497839,-1.0999192261958144,-3.3554198315043964,-1.190827915787938,14.020747615286515,1.5041252672375847,-1.3389754906751932,g
3.4879157228831064,-8.120715188977261,-1.3893453194575187,-2.633180313507821,-3.426071252168343,12.181621941603797,0.5351592640527676,-1.459735819225072,g
3.990245119906534,-8.777180782579457,-1.9361494827395507,-2.256950375996005,-5.558543110522295,10.122082770168461,-0.5397907138645234,-1.7709754754347933,g
4.206985543481509,-9.158613658023286,-2.616847051338687,-2.219619255381398,-6.48385928602047,8.13861724958873,-1.4771813314092728,-2.1778440002268886,g
4.207871009892361,-9.264011442095475,-3.348899558159789,-2.4711402827207456,-5.864778715204925,6.511081251610119,-1.9974174780490852,-2.453488207825896,g
4.007858235447559,-9.290794787237049,-4.089783012975923,-2.9653820855441158,-4.492691391994912,5.4111513306805445,-1.932146501896744,-2.3994681775216717,g
3.549443931773431,-9.293501054611898,-4.813661770127328,-3.6729876741363383,-3.483049724798248,4.867478166924429,-1.3024648986158205,-1.9867047887381464,g
2.7288669185252705,-9.16847682172875,-5.51516948249982,-4.544817762006497,-3.3231164651505454,4.780727176061164,-0.292971680799829,-1.3550986280537731,g
1.4742753380071216,-8.883561132194023,-6.2151887692292505,-5.468016732649153,-3.786074538310222,4.982222980615269,0.8473959847966162,-0.7058147442707419,g
-0.15973265015064858,-8.472706190881478,-6.917471195660973,-6.267598714111699,-4.361142664845883,5.324361720391955,1.932543625886865,-0.18317010148083532,g
-1.9613735956700218,-7.859145213134897,-7.5528213546996525,-6.763014746604836,-4.485945484792786,5.742718729594363,2.9284398803338285,0.20195386613704422,g
-3.646437846533881,-6.955609069720646,-7.9923953558332785,-6.839205838138736,-3.730953834224303,6.234709586531584,3.9362673544175757,0.5809992764508072,g
-5.007415702370953,-5.935270013299539,-8.120811603046516,-6.480280677714589,-2.2056282956093183,6.794997200142404,5.083247774723867,1.1447865352626407,g
-6.009050154259915,-5.13505075214216,-7.88496714822949,-5.747606065941206,-0.6292434611228075,7.397170506308858,6.427192936689634,2.006625084678478,g
-6.762792411723434,-4.647311876808398,-7.2980062209802785,-4.732762620084575,0.3621833295624158,8.02859329142325,7.947689295906821,3.1194399298717674,g
-7.415976265385632,-4.244553020557104,-6.4478811878928735,-3.5327581185189367,0.8792086415881192,8.70533535859455,9.580840400109498,4.3078725398568976,g
-8.03576552183081,-3.753091322311601,-5.501598868500397,-2.2588160284616885,1.4824954863095108,9.447454931144858,11.229480642499007,5.35941693352419,g
-8.545771953387495,-3.247137473276369,-4.635133243940857,-1.041538201348768,2.412888001097113,10.274670712245953,12.763947892173231,6.0959449682853855,g
-8.747703544273032,-2.7895333499494575,-3.910313025749802,0.0009970548251162724,3.4740297904068216,11.23573404293785,14.059015467595753,6.420218383923682,g
-8.43604204280484,-2.241346497796235,-3.2369396560416988,0.8088729512125076,4.516943449930934,12.394649362643815,15.039429516045079,6.350315013952054,g
-7.554734957472052,-1.4838754679643154,-2.488626549877086,1.382089341141096,5.577128464540843,13.739013822369003,15.671581614120935,5.999247439259011,g
-5.0048026496658515,0.12832104599682123,-0.915514742870071,1.7698541377240757,7.145306243391923,16.194087938428297,15.706370161757818,4.764239723662432,g
-4.085984433039528,0.7457780187206257,-0.4984627505073364,1.4131189209089066,7.297815539692486,16.74581113512657,15.005811215610503,3.775896172910806,g
-3.7421015375730144,1.2022346774381285,-0.5927798549581312,0.5745648337799798,7.179154181327867,16.630204884115354,13.843565239394943,2.441431470231791,g
-3.742101537573015,1.2022346774381287,-0.5927798549581311,0.5745648337799798,7.179154181327867,16.630204884115354,13.843565239394943,2.44143147023179,g
-3.9336935405023454,1.3904410934372564,-1.2075969708776157,-0.6924889964382548,6.803068889870867,15.917526888806018,12.332681757233534,0.8431367421908151,g
-4.437050907993267,1.2733339068031921,-2.1605189682803334,-2.1921250149062574,5.912007215298038,14.814236515435073,10.64067280895123,-0.7867843853199599,g
-5.01682159416322,1.0005478943358384,-3.2003055964344624,-3.6853254807691327,4.392064352174259,13.51063866331288,8.931160676718843,-2.1672210579898663,g
-5.5899226960460595,0.6563728226257277,-4.201937044698579,-5.031251686794476,2.473528818175157,12.03739241572661,7.292870358557157,-3.108526338566491,g
-6.254309689137961,0.03454620869255391,-5.257357361279802,-6.2570091310341684,0.39927008280560344,10.27257169434309,5.710646297458288,-3.6225496048203825,g
-7.154831113045896,-1.0875916431489352,-6.56185936477618,-7.495457443540023,-1.7634074588308644,8.116563028734614,4.122473729267683,-3.9252276903929184,g
-8.297613850186426,-2.5372094437952053,-8.208613099923634,-8.837115392251093,-3.8276954541625834,5.659729692298775,2.512600018202886,-4.297506615941261,g
-9.464154403773488,-3.8525111854973146,-10.081739023493459,-10.210366072770281,-5.394509710271923,3.163213296386273,0.9367133184632312,-4.893700994039214,g
-10.28134522036404,-4.750173983309036,-11.899382526366724,-11.379384437358382,-6.345504530629708,0.8850945485246207,-0.5401935261996585,-5.65899820070196,g
-10.385916367944144,-5.260993732085485,-13.323226742977676,-12.058542706164733,-7.135387264993082,-1.0602297903491853,-1.9003568748065796,-6.415850016615096,g
-9.58278661624817,-5.458520867389445,-14.070261557720206,-12.05986540086133,-8.26081187329479,-2.6987854557811013,-3.1515111812747487,-7.01004419351091,g
-7.925295934678343,-5.324734571697185,-14.014486319065515,-11.376546926842485,-9.633694903991708,-4.100953172099384,-4.265192309762179,-7.379660164392211,g
-5.692808139961822,-4.892943740816029,-13.238476020474332,-10.166028521207448,-10.778556751266313,-5.292250315102416,-5.153655704207656,-7.531693485590395,g
-3.2924442205068303,-4.270027050932695,-11.98620246153762,-8.674872393623179,-11.472421294900322,-6.226607216900934,-5.707061427996004,-7.5008124053366885,g
-1.1450775487106069,-3.4762177953130453,-10.554038411509563,-7.171216660638135,-11.892790165941946,-6.837469622529791,-5.861455712038275,-7.334712992139378,g
0.4042338004829533,-2.4937267577730373,-9.208552100809502,-5.904300878568721,-12.304953455862977,-7.130920150470883,-5.657864965446386,-7.092086683571049,g
1.1585446607458576,-1.5146612332149896,-8.146189231034802,-5.06111091079195,-12.920033484356106,-7.219807381826703,-5.242779298212577,-6.831016082697938,g
1.129233187383619,-0.8824200378729202,-7.447499114626309,-4.704508791657626,-13.888429417801461,-7.231995258041245,-4.776253498256411,-6.578251971935536,g
0.5386278448194448,-0.6836934982092678,-7.043334653015006,-4.7333228094296755,-15.040430881605491,-7.181487667947482,-4.304013224534345,-6.281982340211349,g
-0.2820342682471209,-0.6168888533592852,-6.770232694786813,-4.9218160063216585,-15.726925978972835,-6.967077363006953,-3.7265218944166607,-5.790120605574147,g
-1.0614165751491176,-0.3783459528622016,-6.5050182587199314,-5.041884322845382,-15.340023254604029,-6.51890126672605,-2.9234750519976047,-4.924884522313819,g
-1.7118999934236907,0.024309170963417205,-6.256344316945214,-4.996999828956936,-14.019588578177595,-5.926678740430041,-1.9211243456014209,-3.648655738870063,g
-2.3239932916986574,0.4583348464820219,-6.13338854282765,-4.868514776061546,-12.512334459710775,-5.403412581765163,-0.9314849154167899,-2.1755320408509884,g
-3.0378164515118526,0.9413875009883093,-6.237308723761328,-4.81948591936242,-11.318264401858636,-5.1187722332284,-0.21650099848548496,-0.8714247066823448,g
-3.871252986621589,1.5642065616950451,-6.552544218523421,-4.904418991013021,-10.301953745733064,-5.044251288668706,0.11493373726970742,0.020588865345522334,g
-4.618394431384847,2.338041138036412,-6.878352435612131,-4.9333965276750575,-9.144975294028974,-4.919795301019735,0.22471478784514926,0.5938466864137422,g
-4.917883830043039,3.3244928074451314,-6.856822541801793,-4.536001662088308,-7.783038621208443,-4.3806055618080135,0.48103562447391096,1.2264993685687293,g
-4.489750194214866,4.747761651672098,-6.156237679042364,-3.4211684872283556,-6.297332018903007,-3.20257377509443,1.2204043206527526,2.2911049711953875,g
-3.382947420511203,6.722983094887023,-4.730976580626233,-1.6425511124698464,-4.755727100072475,-1.5103529670319484,2.479797018803482,3.8463269116963135,g
-2.017499483120077,8.95507552140846,-2.929078202066008,0.3587721368863508,-3.3446698650870395,0.24648669440253296,3.9175991364561655,5.540526992037524,g
-0.9504990948315284,10.92373252923543,-1.3072611859201728,1.992107135641114,-2.346868795921432,1.5725763727044764,5.026238721144305,6.809214528814134,g
-0.5291418010473447,12.308374141408327,-0.2908675616253675,2.8636329544179686,-1.787887069959078,2.233718326926952,5.4819438987497495,7.242428732594374,g
-0.690035953349861,13.06146229391489,0.046173580768215976,2.9756705147156497,-1.3713251569228426,2.3318158283231734,5.340536209228535,6.854372990988392,g
-1.0451402755981303,13.193259171534404,-0.05472955211465487,2.6442230266884232,-0.9558104223034445,2.120360598808434,4.932851667552564,6.03787603513759,g
-1.1883773139102927,12.755829677131247,-0.25997174602403816,2.21204125495725,-0.8265808004538332,1.7519420267919485,4.575875104297969,5.237641012712442,g
-1.0164554939162387,11.976654527638,-0.4044014480779229,1.7753465753899669,-1.2812625079927789,1.1492434952466806,4.331281429175457,4.614982714553661,g
-0.842172612117927,11.1029858875853,-0.6374926156639054,1.1252175933751898,-2.229335711004828,0.06590125301711688,3.9653567614296414,3.9673477460362863,g
-1.195737017971473,10.087479211687153,-1.3301360623717264,-0.05207578681074052,-3.4762202283593417,-1.6993521994652592,3.1246253627256966,2.9352866807576055,g
-2.426675314427176,8.695868473073242,-2.759229942689701,-1.8641057561408438,-5.132989032050359,-4.059521278755959,1.6193678477387983,1.3184837208553362,g
-4.398121099015911,6.9874220782758645,-4.808398915807175,-4.029960330239804,-7.37296206675043,-6.560946680177571,-0.37857479691081275,-0.717445631954468,g
-6.525594989727493,5.4474236255023865,-6.961968485974576,-5.976028126590165,-9.943091685118437,-8.585095983308502,-2.3881980863234404,-2.6724772511488206,g
-8.1440000396942,4.556033665139476,-8.608602661499635,-7.148062185011059,-12.278899292369712,-9.702366285610708,-3.8955273798013557,-3.969359286296865,g
-9.018154129403849,4.897559008660689,-9.325886994387314,-6.6457217646677575,-14.998067713519408,-9.465306628300706,-4.64597536913198,-3.6403910216836515,g
-8.898483219495883,5.766460162576384,-8.723413225270722,-5.552509672267853,-15.118861739471464,-8.826606794960894,-4.185571527796736,-2.4083444702936956,g
-8.961428467804936,6.732796148841983,-7.9358699046993495,-4.397244335462276,-14.303621142883205,-8.241637552024468,-3.5080067879208867,-0.919765161891644,g
-8.961428467804936,6.732796148841982,-7.9358699046993495,-4.397244335462277,-14.303621142883205,-8.241637552024468,-3.5080067879208867,-0.9197651618916444,g
-9.253300690340016,7.449595606408624,-7.166969531724115,-3.3113718827624203,-12.950912108865182,-7.762277433665742,-2.7563325702303785,0.6676254825733074,g
-9.469699642130855,7.798753685962934,-6.395544020424704,-2.2165661708073783,-11.806748939075714,-7.286471575231147,-1.9223532533964611,2.3819399019048197,g
-9.244368615637422,7.980729543994952,-5.491600202619948,-1.0141803508011635,-11.374978027835336,-6.717834919109461,-0.9126367359560812,4.2893967357167435,g
-8.495920556986093,8.161436708119982,-4.428823423322092,0.22424086293211493,-11.684449379165942,-6.122365420386595,0.3119597909831155,6.324780078840469,g
-7.5380501369982955,8.198743622476076,-3.378225521050014,1.2319268731027608,-12.576280062066001,-5.746644972279516,1.6311465931464766,8.22074299582739,g
-6.853045918034924,7.90993916375894,-2.5773414933118985,1.7170955742791651,-13.815905933699392,-5.865310539297303,2.7978376573976247,9.604606289031896,g
-6.724938999100827,7.4474877788646525,-2.1182346928395472,1.58947356354478,-14.900238297082874,-6.5930773232537785,3.5787569225213196,10.217925854979107,g
-7.043784701994284,7.172418730945378,-1.8723850935188895,1.0521262547669132,-15.260238370631262,-7.816688736157812,3.870372611766033,10.087078715365557,g
-7.42842891595425,7.26296694534278,-1.5978397218747649,0.4802776319392391,-14.90683786510319,-9.259572614097817,3.7120974794676203,9.48400237904742,g
-7.547876145198205,7.675247454321962,-1.1057540806462456,0.18373300034949375,-14.52160150615686,-10.594061111854053,3.230733378497154,8.708556660938935,g
-7.381268353182627,8.38459871670073,-0.3702544492984557,0.23579859751344276,-14.612321798942782,-11.553623565460716,2.572509877426512,7.898951972656171,g
-7.223114715551654,9.390881341299474,0.45749358187156064,0.4844241468201359,-14.806515205916572,-12.035289834943256,1.8404339530737368,7.025877417688671,g
-7.44293484720652,10.520963943648944,1.133355530242899,0.7060890149416478,-14.22189351096203,-12.141857867334165,1.054496421903277,6.020761945464029,g
-8.200704191687523,11.482913929580127,1.4590859445534456,0.7561542093013107,-12.3518615223241,-12.108133913002225,0.16815798272543278,4.8803078542910985,g
-9.347755535745895,12.11846407837146,1.3708579726951264,0.6034640853736672,-9.443362401250592,-12.148973349313072,-0.8628417727478326,3.6702734652194566,g
-10.569875683130897,12.385831292776084,0.9108511932292048,0.2680820021199647,-6.325605233052592,-12.335451512925463,-2.0123522729744834,2.4759260653900133,g
-11.618422394996362,12.124970827875334,0.14770350295310344,-0.23596449009467563,-4.1310877963958905,-12.56251271880606,-3.1570654086857752,1.37166847426825,g
-12.437340491364932,11.119117563545103,-0.8534305140995709,-0.8989005641079629,-3.8195427100520747,-12.611204438110752,-4.097067142127424,0.42758803761254416,g
-13.133331791452719,9.426331608762334,-2.026229602279564,-1.6963476108413242,-5.447461897729825,-12.298600712951407,-4.632304331050625,-0.278482209549448,g
-13.863966484760516,7.383566191319704,-3.3368476068028388,-2.6050659027638208,-7.9479271014745025,-11.66060748777562,-4.688549833453247,-0.6828614975081886,g
-14.723180690686064,5.208489027229537,-4.81888880719692,-3.6278489958857874,-9.99773434917044,-11.011883471398624,-4.404010900995806,-0.795131025236878,g
-15.664520438015279,2.8559965922938026,-6.501486831695064,-4.763146672128349,-11.112215188832106,-10.757418148582122,-4.054556027345148,-0.7330583753035553,g
-16.500655622837304,0.3770220335858802,-8.258635536959876,-5.9195682881959595,-11.692360350503678,-11.068202314664552,-3.8337143424819438,-0.6540789475963211,g
-17.001852517506787,-1.8429019357203962,-9.761058765897335,-6.861701142513309,-12.21301656604174,-11.71819525213284,-3.684897181639722,-0.6016391075219804,g
-17.038761494924696,-3.3861278351569988,-10.626896784327684,-7.271667525129662,-12.795650881751076,-12.246103730983368,-3.359975162665055,-0.4149685077267408,g
-16.65850691524449,-4.159795952067526,-10.646650991204277,-6.916598046395738,-13.468432216281133,-12.292970051593063,-2.6514599913370596,0.16817466190660796,g
-16.034755216243184,-4.289016832091806,-9.892656899496867,-5.811535540134855,-14.267351544067159,-11.831884176079125,-1.5815172695752735,1.277747244730076,g
-15.336091796857286,-3.83903327290178,-8.650887673033354,-4.244057787475329,-14.888320599914522,-11.140914392734297,-0.39535599331143,2.759032630332308,g
-14.603879664718956,-2.83781525605069,-7.237393953316148,-2.6130393928328584,-14.632590158587352,-10.570550464828639,0.6142676964053431,4.241287860482621,g
-13.711902588951935,-1.422652686529967,-5.805274974299907,-1.1855634444786822,-12.969217540620457,-10.271600960788925,1.3069778652182753,5.358688141705069,g
-12.442393961961285,0.24108717133137123,-4.271894042062229,0.03201166871617964,-10.008866730951596,-10.077044690132624,1.7655089864496276,5.936249220798084,g
-10.651314857913595,2.059357281096781,-2.4577702344754653,1.1940360690823348,-6.397629537671626,-9.644476183372786,2.1695315920283194,6.0109492335668,g
-8.4117244288847,3.822229736069029,-0.349984866080043,2.3780598024271224,-3.0371286371113237,-8.748914267581435,2.5667628628997887,5.700290301072841,g
-6.012446623749381,5.057499709078147,1.759279293331477,3.428567300958857,-0.9162864735855166,-7.453601214247175,2.7561521480221867,5.0415020565812165,g
-3.814012354913671,5.348786748303584,3.403968263434816,4.012701207830286,-0.6829193144243795,-6.005368449545426,2.412581726220798,3.9405154725623595,g
-2.1014598881080198,4.750523278533494,4.203851980087547,3.8179950551498747,-2.0070812043267,-4.595325796409407,1.3366080852182471,2.2730219661990194,g
-1.046614795062561,3.643429811915527,4.01041849231582,2.723545742482249,-3.666447076047175,-3.2345195644456224,-0.41058481480618036,0.039693852088348615,g
-0.7391347721420933,2.2181773299238583,2.8867474993742146,0.8473183320702005,-4.68365669777684,-1.8093470479831573,-2.5745868890578856,-2.563433775644452,g
-1.1799534513781942,0.3609081650314369,1.0453487206417151,-1.5095533541935597,-5.306356806087633,-0.18818143411825874,-4.845834544069922,-5.1921641075069385,g
-2.2281440546088156,-1.9563432612510538,-1.1884846692671331,-3.9579587058986347,-6.631846876589982,1.7212641351410258,-6.924389316886904,-7.439073223954365,g
-3.593651905329037,-4.446013981912474,-3.4385029701567467,-6.118453678472278,-9.403564567211836,3.9411834708734452,-8.523140497818648,-8.900779260010818,g
-4.934464809212109,-6.726426893117325,-5.386346965356343,-7.711991365806988,-13.370656338136413,6.381640830774135,-9.40140340131244,-9.263534651043006,g
-6.775038721479272,-9.840888787051849,-7.859605739100421,-8.969832538566106,-20.8470220575929,10.863398876204037,-8.751760113565583,-6.6066880993305945,g
-7.366897639976815,-10.597976903292764,-8.493712538724917,-8.94270515384807,-22.385922142752065,12.12737954932409,-7.577209100670759,-4.228286143044562,g
-7.928177419528391,-11.085961495374367,-8.884378480803951,-8.739070607766404,-22.12100015201292,12.28011769918048,-6.249836580866962,-1.755968171781472,g
-7.928177419528391,-11.085961495374367,-8.884378480803951,-8.739070607766402,-22.12100015201292,12.280117699180478,-6.249836580866961,-1.755968171781472,g
-8.416653335778252,-11.612627312394508,-9.012511533088812,-8.351041493160423,-20.824155588433886,11.283747886415433,-4.976405916694541,0.5284629826725411,g
-8.534177877121461,-12.122427194673163,-8.651729930722036,-7.544757293465944,-19.39000371508029,9.477650169978903,-3.7345128080874814,2.583327286155039,g
-7.876600324034212,-12.147159737550728,-7.502017913954887,-6.029878590580278,-18.01340936938448,7.442471324653374,-2.3430609438476715,4.5035719999387585,g
-6.208264179724895,-11.325441886612355,-5.457198043125149,-3.724209893970509,-16.28674313848993,5.69781919639176,-0.685784022201778,6.3331190062043685,g
-3.6531443020695007,-9.816613331324016,-2.769413895089953,-0.9125497539248515,-14.01090779278483,4.4744886755372955,1.1032145826819348,7.922255151096401,g
-0.6752289792252977,-8.08211255732838,0.030776492478408635,1.8245366874030329,-11.536917935967224,3.721621444243411,2.6609528587685696,8.942549210582696,g
2.113822828601864,-6.454315988228146,2.3650494148587025,3.8672591707260486,-9.324942011476795,3.278929216991547,3.598895554800081,9.071368491426787,g
4.201505251422835,-5.078040874731654,3.8203903427827703,4.8404223634871935,-7.596746652826523,3.050863885850861,3.7224423253512278,8.218871173370442,g
5.371924727169948,-4.049395658863127,4.27586009153636,4.767276668915814,-6.517797977643295,3.100905407860825,3.135858151069022,6.624420226230157,g
5.771489799511071,-3.3335309773734423,3.9294092042027637,4.016413607618268,-6.292870621497443,3.6482586069111873,2.2012057528873585,4.758304376516696,g
5.789660583208595,-2.6588210675196535,3.18577947435394,3.076693210283493,-6.8485748364601875,4.945082154383752,1.3703441298548682,3.1117745324137327,g
5.795955886252296,-1.770078761068639,2.4220836575101607,2.292037298264949,-7.727150639359804,7.068014803977593,0.9509747905930996,2.000293603286477,g
5.887904450371955,-0.7671024836033944,1.7789816026557272,1.7096785214343142,-8.537983352868144,9.76880894072835,0.935554272598416,1.4573968911783866,g
5.815986177607469,-0.007148730590838254,1.131292205649094,1.1186083480836504,-9.296567192702337,12.5206833971257,1.0222304407396134,1.2591306614463482,g
5.137953675167027,0.2651467759587951,0.23452403225506516,0.2369677116336714,-10.135326053923125,14.738731659701212,0.8298112289508897,1.0898455232653161,g
3.51432288416296,0.0026776907339046475,-1.0764276383588833,-1.069833579696005,-10.929175486918345,16.031042353932385,0.16521523093399448,0.7746448200309424,g
0.9733332056404682,-0.8145692943977625,-2.7414328693549925,-2.666183788423912,-11.422752105478803,16.354838674003854,-0.8243141127852166,0.41404596738481453,g
-2.029343937963059,-2.137577697358447,-4.44653082612772,-4.196951016002056,-11.491118357095925,16.008203515259915,-1.7052372594617502,0.29876688922429784,g
-4.830766969967496,-3.6545940838676563,-5.767849967520034,-5.297539102606274,-11.047249853656464,15.42640335899534,-2.0080572629367266,0.6572493509529921,g
-6.940454887437221,-4.951141451664206,-6.450164863238795,-5.83765884347846,-9.964607765673973,14.85958593203406,-1.550707723396512,1.4267856572037991,g
-8.302700456161276,-5.952097633465285,-6.611849265166971,-6.0205624728273515,-8.427767527388596,14.162394720971701,-0.6122934547038146,2.2207724065017147,g
-9.224339670877182,-6.973556277171374,-6.65769367651689,-6.238770703892025,-7.152118580794638,12.906489567294035,0.22170474878081392,2.533969750181007,g
-10.021712853249232,-8.240231179140508,-6.9367762580938575,-6.768204986705513,-6.831155696196073,10.756485987313905,0.4738808572990547,2.0747992440599505,g
-10.682151761372735,-9.541150930762374,-7.4403527733615835,-7.526397064339963,-7.398395990288288,7.7980445199635025,0.1273486771169475,0.9976381743017086,g
-10.818180813041511,-10.432998245053906,-7.793559090567281,-8.093840905038972,-8.148918762865636,4.558614105432475,-0.37986331298159887,-0.1765300387585592,g
-9.94094041680809,-10.573624498539663,-7.521278765725488,-7.999384033073611,-8.53760649681379,1.7368746269654558,-0.5073766086365602,-0.9402069553610932,g
-7.825581906927451,-9.776380952480897,-6.366091336501027,-7.054366669041146,-8.54656383033575,-0.14320540550673097,-0.01675823748250087,-1.1836705916716563,g
-4.687711079203257,-8.00254486665979,-4.44384932026974,-5.475048151891646,-8.342024193707745,-0.9397998639897388,0.8770152391554579,-1.2473320393581646,g
-1.054890340079178,-5.499644900075677,-2.1528566276396908,-3.7084973166268775,-7.977980309977198,-0.8597601867278645,1.6921073577803043,-1.6015038862975932,g
2.538289825185711,-2.771941941011524,0.08676130690309058,-2.124353882019439,-7.49077006093289,-0.22405873772611992,2.046614065936022,-2.4462574856263224,g
5.767901318648205,-0.21361709949148242,2.0521656125918013,-0.8372588517112668,-6.9319842961405085,0.7845369616697287,1.927170670158263,-3.5647968955387803,g
8.480022283234476,2.102188081787555,3.6985075207386373,0.2049542462768917,-6.235371234851483,2.175521189551774,1.646962851237045,-4.522019790839282,g
10.477521071154191,4.106714990403873,4.934254232514277,0.9784200590057042,-5.408004961842325,3.968078591552609,1.5263001844856317,-5.028283403821947,g
11.402674820088025,5.382809010047841,5.463111096329675,1.2418244704496302,-4.9645164675685365,5.9765406411815665,1.5859642842042598,-5.174675701519214,g
10.891621131013046,5.387654758214214,4.909494676359668,0.6601164247661191,-5.784824589162992,7.7948574696240644,1.5455815049821091,-5.338960976543221,g
8.886191984993207,3.9644451515050934,3.1278061375098707,-0.8986846801737904,-8.282667262449966,8.988105932845498,1.1188197044842787,-5.823647896507245,g
5.803468299686685,1.436866835894575,0.39231291345785346,-3.1665321612860113,-11.928334271844083,9.304087020539814,0.3043154188140397,-6.543286339981565,g
2.3795419923299117,-1.7162981531289752,-2.703158567053984,-5.573941576468206,-15.746767455899036,8.750858568537662,-0.595644090646078,-7.061164096518963,g
-0.7041936571226024,-5.060180461098381,-5.534410251324363,-7.571397236511982,-19.03381400434866,7.535388589098623,-1.2066014515358223,-6.94368888412356,g
-3.1240110545926205,-8.176283908921139,-7.705161664788432,-8.903437934073109,-21.45215852930783,5.9381128582427,-1.3308917503179412,-6.090171379513899,g
-4.935193344748261,-10.7502453628908,-9.126667942232565,-9.626903365690783,-22.816479848344873,4.198269942505232,-1.0234168597477435,-4.751917400554602,g
-7.409556317571161,-14.18944955347726,-10.136702877134752,-9.81592466817062,-22.763640418713145,0.8680164384534992,0.1515909142311065,-1.9127170799029354,g
-8.007028969352834,-14.980541984012827,-9.794439517743795,-9.272903214380658,-21.850406792524744,-0.4664022279488118,0.8692075511214152,-0.6353924867784966,g
-7.903393063651987,-14.776616155962383,-8.76917267203391,-8.170651606925194,-20.19103100614091,-1.346650725254999,1.7870613064386198,0.6570313304262763,g
-7.903393063651987,-14.776616155962383,-8.76917267203391,-8.170651606925194,-20.19103100614091,-1.3466507252549995,1.7870613064386198,0.6570313304262763,g
-6.992635730617929,-13.44021760494887,-7.01673133628356,-6.497487500823593,-17.436922562486934,-1.5872826158921363,2.9955272008607348,2.049031827257763,g
-5.39984945412254,-11.154703648141124,-4.6425056513160525,-4.383331422808142,-13.625562986928028,-1.056227142260529,4.460967505827456,3.4951534124113826,g
-3.4377077686803306,-8.155727838366216,-1.8853380770591706,-2.0624523611507795,-9.13923847197876,0.27733369068010194,6.024176409788958,4.814456226861045,g
-1.4767778428884806,-4.605517412498578,0.9322509116587426,0.18546241801713048,-4.341008792711024,2.280651656323184,7.451621369183464,5.769965399744072,g
0.19052564416212822,-0.8275775636175011,3.4589903833743305,2.0863466081917617,0.38689107135381723,4.623940076394117,8.478950683109364,6.160905944655964,g
1.4552689519333586,2.6143860903284697,5.418858413411065,3.42933244625453,4.376885308933176,6.861667947051993,8.861144778400332,5.87063372463083,g
2.4339341815491684,5.281188521225211,6.742880391059307,4.13508652218651,6.924559570177929,8.61336886990803,8.457198909949401,4.886818144869617,g
3.400061810155102,7.156814192363774,7.599538742626237,4.2930611599818285,7.898612011025477,9.697268963356052,7.297918668565359,3.3237720244966686,g
4.608349350596333,8.446424455443093,8.252477931665304,4.116096475170334,7.806593065049755,10.105694154316243,5.5577001827935835,1.412000538809035,g
6.115368618901835,9.24392597571497,8.856829307936177,3.8217374603391017,7.204782033895873,9.879590844118907,3.448583935189901,-0.5851512765451471,g
7.738553920509477,9.546921666478283,9.37227292506254,3.5274444846489543,6.305503115002397,9.024200429433133,1.145958269544571,-2.465721563985304,g
9.200065026162987,9.41233761944105,9.64700539879733,3.2485049477822634,5.1440481237035005,7.530089896695182,-1.1917499951661208,-4.086603332997608,g
10.345910941165888,8.881547029664405,9.577705902632141,2.9898785750609607,3.7439413208115218,5.452339968121444,-3.363843840336237,-5.2779894261245754,g
11.252259437114073,7.880025750228347,9.210355209258541,2.820564502028309,2.0112751352819824,2.9644651095511163,-5.119812051332184,-5.816795420742983,g
12.10945919238339,6.4032422932439585,8.695442281074062,2.8310395624775464,-0.17065609382837402,0.32610946265598545,-6.232138745237198,-5.537524978422036,g
12.966129697637072,4.688261677015574,8.114285040903482,3.0045970888770035,-2.55550571761314,-2.2373099386598847,-6.6030698431314665,-4.4811002168946485,g
13.567924087544949,2.971246649164011,7.328757954737499,3.1471249589435515,-4.542987123975154,-4.649945984904846,-6.322034442347457,-2.9249398988586757,g
13.476289307994374,1.1700817707337277,6.044229620389063,2.982624702209615,-5.7809288539726005,-6.962211129151671,-5.6051917104595175,-1.2538559697256588,g
12.400017444532086,-0.9281702026795482,4.085570325570595,2.3543163640853306,-6.4972029087852095,-9.179047970686419,-4.639455314827243,0.231799523830869,g
10.444326159916056,-3.2103691076972516,1.621849420148407,1.3440171422821807,-7.0290416114135255,-11.120530709909813,-3.473501599247311,1.4307407226317124,g
8.034997789300679,-5.244056645752051,-0.9190385706429633,0.18261514445941693,-7.3151669124831455,-12.496777180514595,-2.0912205801171675,2.3868597204849324,g
5.586743075654438,-6.755855811073391,-3.1764789127651607,-0.9707217123128175,-7.144769808203231,-13.14425681374351,-0.6087998913707369,3.100984408442815,g
3.236965506986471,-7.8563468647907495,-5.087973085024456,-2.1604490616847434,-6.654067709703005,-13.181845047877204,0.6370818398030879,3.3866680281961408,g
0.892968443537621,-8.751939504405524,-6.805812598120852,-3.535970776014063,-6.199974984456492,-12.935823062287998,1.2510414669493009,2.949868540366851,g
-1.4714100385383255,-9.465471328865144,-8.4145413295588,-5.109958996977291,-5.881247912478541,-12.7177058984726,1.0585188607195444,1.655466551578553,g
-3.565541872268836,-9.884289032482247,-9.727096167334913,-6.609104937936951,-5.532652215836382,-12.637206722229058,0.24377398646691742,-0.27870397860077656,g
-4.826530734721671,-9.831610493961966,-10.327694216657672,-7.574717549821457,-5.084009792276579,-12.555419140222593,-0.7645963238560664,-2.3673464404006594,g
-4.75383983809663,-9.010846814718018,-9.83260146483111,-7.6503527383406205,-4.571783593120562,-12.184887673951525,-1.552397217250475,-4.151416602868514,g
-3.2837515453688915,-7.155984598644473,-8.193258272328924,-6.832048165870136,-3.8800367957775377,-11.279233714636444,-1.934411639528942,-5.445784723554537,g
-0.8983134126363138,-4.417480641932663,-5.805924965404958,-5.480839535294931,-2.86059279276868,-9.78868785655295,-1.9901708607864776,-6.363554684562585,g
1.6399774457371699,-1.4169882971294117,-3.3014964661634467,-4.084224900606705,-1.7108104074466333,-7.857725892115445,-1.9035599903575762,-7.13636821986144,g
3.7208863083692143,1.23973438397353,-1.1712975653821676,-2.9602011627228966,-0.8907227201652649,-5.686537711439731,-1.7408774858052962,-7.883388100867464,g
5.131572865126789,3.3534771068791542,0.43328400293663716,-2.1458050972621754,-0.6601517130932475,-3.4247176988177515,-1.3817936753587303,-8.502776368223278,g
5.949282909385042,4.93532254437333,1.5726352432188437,-1.537566187935696,-1.0199665312434891,-1.1997828468613227,-0.6815019013287587,-8.769032119844498,g
6.259689178832728,5.8739124309243955,2.2680849947792168,-1.1113608605340406,-2.057029667069871,0.8118834563203109,0.31469538163930133,-8.544625666816778,g
6.009355924341479,6.035310915425216,2.422683053308017,-0.9919052826872733,-3.8717242031528216,2.4005780559394703,1.3471501833346105,-7.898915817682008,g
5.106601114045076,5.516266738677528,1.9472000114535646,-1.3225993849343087,-6.054506969596156,3.396550253178485,2.1232224035281746,-7.025653265964858,g
3.618209240947716,4.5112164707805045,0.8938267290280087,-2.0962596752871474,-7.715316119146823,3.683947648539739,2.4925330972155932,-6.076569609365292,g
1.8444733802182867,3.0016081070857403,-0.5469414765281299,-3.1279021165238357,-8.354068100051393,3.1421152966838335,2.4507394263941484,-5.107232035027173,g
0.19765670098721203,0.8233601318453031,-2.1564222555451735,-4.191152909700174,-8.463032328538723,1.6120082549610157,2.019256204989703,-4.16649058295124,g
-1.0144141376452165,-1.9917174960084068,-3.800453838855571,-5.179541440880577,-9.033798476398347,-1.0454614417179697,1.1575969002637259,-3.377414794993065,g
-1.7229663651835985,-5.127918976985174,-5.454012985054757,-6.134899393873934,-10.631738517996785,-4.816145037832122,-0.1948636487124819,-2.8853239831495126,g
-2.066077549930363,-10.518914372363046,-8.517198594039447,-7.991081399865374,-15.3636901776399,-14.058979739094289,-3.8352344383819315,-2.7327697169818377,g
-1.7421830660126258,-11.557053388344853,-9.314064067924713,-8.465241299524573,-16.49274942531078,-17.938983116134036,-5.2468114336366565,-2.6456164715239074,g
-0.9047086201872192,-10.748727948977894,-9.051512264803005,-8.188503576886223,-15.529565068990532,-20.271320906825217,-5.722441885997663,-2.2565960601533446,g
-0.9047086201872194,-10.748727948977896,-9.051512264803005,-8.188503576886223,-15.529565068990532,-20.271320906825217,-5.722441885997663,-2.2565960601533446,g
0.5297915015783674,-8.204060913398767,-7.579099403249276,-7.0289933700353675,-12.633933730111595,-20.83054835956069,-5.169993673755651,-1.5987542850044245,g
2.4358622702641854,-4.607094243132693,-5.130055530702299,-5.167239174905658,-9.139049000142583,-19.982034183873143,-3.9631133216306793,-0.9556034628949546,g
4.535474665509407,-0.638188889212562,-2.132535119485925,-2.9639019337890082,-6.533328015961511,-18.37963479575973,-2.6690573393993016,-0.6666591477811019,g
6.577266166810686,3.3890212871323597,1.0761100626814817,-0.7141440582497081,-5.267685161049538,-16.551202573706938,-1.6602633236937183,-0.8648914951880393,g
8.47551246461412,7.338793685790842,4.3836461693836,1.4969239911284373,-4.691432634392621,-14.684108089955824,-0.9422611629978375,-1.391503546589713,g
10.303436144355148,11.002830085055432,7.819073734557125,3.7268925467763188,-3.9485609518893154,-12.715930686593463,-0.306105128633266,-1.9845528930283152,g
12.164443926774538,14.151334774388417,11.357431745695125,5.9816858968864715,-2.6464441885370986,-10.60441868735977,0.37362470992458174,-2.5556072717211182,g
14.051361241398709,16.586599678549323,14.7688611017982,8.084340334538002,-0.8859107959069537,-8.550766365042744,0.9584756943942443,-3.277034371965555,g
15.797590380716139,17.9966630462344,17.631056955707283,9.723816996203826,0.8412557433145205,-6.991640498553579,1.1168255103713547,-4.409744783741816,g
17.143158338532114,17.982704735200358,19.517343838587202,10.630677631407163,1.7713470486513856,-6.343805983523024,0.5797499425832691,-6.05320640959992,g
17.85351515937344,16.453005154091883,20.221574501195015,10.7248333541168,1.3703802456916845,-6.700463618150529,-0.6220859393538778,-8.030326532463679,g
17.812144693331657,13.874751256403968,19.832144337324593,10.128782947933193,-0.07191543309228585,-7.7430849988115025,-2.135627499060302,-9.967592744629442,g
17.054156344330394,10.971308091471302,18.613601678355973,9.063928649578752,-1.5913661164394135,-8.944980924401936,-3.5022440199750546,-11.495082579449658,g
15.743892086807373,8.259386665269941,16.83385467963015,7.721371097413359,-2.4013292664904204,-9.892511545507876,-4.441375768781013,-12.44545176072031,g
14.098985166257398,5.9552880841404106,14.672302181740992,6.184561835298421,-2.4203031961980486,-10.498494031122124,-4.991390504345106,-12.934870034869112,g
12.280193148795632,4.091574593497472,12.212605126557614,4.432858350624601,-2.0293968091631642,-11.02052152336297,-5.445109590124746,-13.267807683258003,g
10.316252070713967,2.4795028968281003,9.473114385345799,2.414118901688192,-1.7310476561538324,-11.918219023538859,-6.17228854398373,-13.734737272169957,g
8.137582471026459,0.719941248197143,6.4751312151267015,0.14016101548444074,-2.1482952705954403,-13.616275869773926,-7.445766769000267,-14.461687831902404,g
5.708636400100344,-1.4177760245739015,3.342602212547102,-2.2551568463277114,-3.8770089749460594,-16.270957514388233,-9.32951314023773,-15.403963294424026,g
3.159891717753946,-3.6119542864091194,0.3584939781639772,-4.523185443971133,-6.944196758509787,-19.667039778778786,-11.646490396340601,-16.425431625838748,g
0.8216176937889055,-5.174892145458953,-2.0842979873710634,-6.350269732605374,-10.578443795252205,-23.30421541685198,-14.028752394944856,-17.35738019765554,g
-0.8705947476032112,-5.606735998693516,-3.600708286785401,-7.420370056372789,-13.762370986883809,-26.59993383226459,-16.02886238446669,-18.01764716495719,g
-1.566995433057377,-4.82941641665859,-3.929892453155553,-7.493213547978087,-15.88773078330236,-29.091378969328595,-17.257478300401935,-18.239921599522795,g
-1.2104954270406616,-3.015891961665073,-3.034229867017882,-6.498773323539133,-16.785297115513536,-30.5782328655691,-17.517856784568814,-17.92978104945057,g
-0.1293107992164609,-0.4966329862825779,-1.1617147413631281,-4.594913478427631,-16.485678523386678,-31.171991813649278,-16.89187464474807,-17.109329219370004,g
1.0928850425960435,2.195134263158178,1.2153331938815972,-2.1157926633721353,-15.291800969029293,-31.19067036647171,-15.699045357885193,-15.914349473320314,g
1.9253354937097833,4.543517049646882,3.622729193219082,0.5820452019292862,-13.822518828690596,-30.907696993123558,-14.29818677289596,-14.53865419643065,g
2.1608668718561233,6.458537711746146,5.81885219662653,3.26482010785114,-12.53163895617481,-30.331979009323295,-12.85241575658875,-13.145590319630818,g
1.9403718738368763,8.258270347421366,7.8261446302567705,5.843436185290691,-11.240416966922036,-29.22743237224903,-11.263982179355962,-11.799903075729258,g
1.5314749360998594,10.14122138769863,9.738354016405294,8.265748182275628,-9.47632386366275,-27.366912433028467,-9.355896260103592,-10.488263694598457,g
1.0615783852699752,11.853844825646549,11.502001106437401,10.381685222367448,-7.21200738924901,-24.79314441876025,-7.144511656998176,-9.229334687462643,g
0.4137129510091747,12.94642004325577,12.857571941647985,11.902706044618332,-4.965277547366825,-21.878625839333026,-4.96175990052067,-8.163399163619966,g
-0.6531475408471987,13.148302894458201,13.46021027569735,12.509742557800578,-3.255296507657328,-19.1617475759483,-3.317365861432593,-7.5034671109178035,g
-2.2547607136307355,12.425712451947849,13.09836411780257,12.058104102826244,-2.294409762012596,-17.067851497734257,-2.58840710346893,-7.367429179777551,g
-4.1854910398467045,10.96144178663125,11.898180122731599,10.736245578108921,-2.1076871366803105,-15.666871108328667,-2.7426963580979296,-7.642663651457563,g
-5.943942285216279,9.27017565775501,10.358217936579917,9.029963960359286,-2.4881469707077715,-14.637087354400915,-3.3061534444828253,-8.012140699109098,g
-7.005545412197629,8.078541359640772,9.103628975325801,7.47342944487617,-2.7975428419962345,-13.524246900980625,-3.6504621853223234,-8.132687785370743,g
-7.156722869525782,7.771896730433741,8.484704968347971,6.355814754515485,-2.3015057730784463,-12.1449729716982,-3.4284335312352154,-7.839976321299784,g
-6.622319324811373,8.01784035876718,8.35525129614182,5.614230923090803,-0.9365297785360476,-10.795668538523925,-2.8138074777989046,-7.234502652379341,g
-5.8828704480589185,8.131803003154824,8.240826068110607,4.992518646641605,0.5528085569556161,-10.066035064305765,-2.335012015112594,-6.5788290397019455,g
-5.340576113719213,7.7467066947404515,7.740360328307856,4.318964930789742,1.4248836531545266,-10.41550249933214,-2.4511651051548613,-6.078973491811613,g
-5.088899903066357,6.991151238195981,6.817910790616938,3.673072046290868,1.658761057532277,-11.855882870034495,-3.2340725978391247,-5.735472933602872,g
-4.47555644436993,5.636666608426201,5.1420502570308875,3.5511643284700702,2.3402187188304806,-15.982790618832155,-5.458275890624078,-4.972611663747096,g
-3.5471088027710693,5.564810241412061,5.132665731263688,4.394730923063821,3.6298093648193985,-17.4194839319599,-6.208526957407779,-4.535513607422221,g
-2.164692205648546,5.955231238919358,5.70275348749883,5.665164724022081,5.59158895706324,-18.004285680811233,-6.644779509685442,-4.296129946550877,g
-2.164692205648546,5.955231238919358,5.70275348749883,5.665164724022082,5.591588957063239,-18.004285680811233,-6.644779509685442,-4.296129946550877,g
-0.6096385352399525,6.410017139796361,6.476876386485349,7.037653645564303,7.575497141914191,-17.828705565925382,-6.980128904628191,-4.410842976118581,g
0.7785318245050865,6.472729370693197,7.05618424795006,8.25577863115497,8.592052384006724,-17.089045253528713,-7.396462750192765,-4.845196364908107,g
1.8213865832032987,6.151095723381724,7.311175674486049,9.261734196010162,8.242151574494287,-15.828987180470534,-7.844659497911526,-5.362600973053428,g
2.5864896351139195,5.910898084843963,7.431143364382033,10.172334196946428,7.291102010392928,-13.89189214474364,-8.045102683766345,-5.635741761907392,g
3.2853071134172582,6.117576668790068,7.718973809832081,11.13795215202774,6.979711268289549,-11.103691949179597,-7.688622010258243,-5.415370262702044,g
4.081897409172836,6.6951634169955385,8.355537270019461,12.206204763106253,7.830766402934813,-7.48317174785767,-6.649612274507111,-4.651672372051486,g
4.9600269946808355,7.3550660235833245,9.321145767215718,13.29020687422921,9.350521662376929,-3.2979603627981526,-5.036074566852099,-3.4722368041631606,g
5.737319811834599,7.896736004570838,10.467678655774606,14.24744435564995,10.700286898354895,1.0343892094842637,-3.082756366350277,-2.0289977844080656,g
6.216842456429888,8.204776755535958,11.64323888389794,14.99483781773429,11.335516321090088,5.101100729937204,-1.011703573865142,-0.3551896909772772,g
6.3724222566372974,8.22394674235829,12.794970895410275,15.568775712411028,11.206541458269234,8.62345289122963,1.050173304571592,1.6346266340852327,g
6.416378727459725,8.094208880815657,13.985597530656616,16.083660083513152,10.837189162388363,11.500118625215274,3.0716028245657148,4.013562851058307,g
6.666910114055655,8.087138366121481,15.28286098534231,16.619111059521884,11.173710780137295,13.72886711435543,5.032585848516406,6.701211589167852,g
7.304955226098784,8.217719755132572,16.601769469324726,17.126788292601987,12.841746976409535,15.270176407411771,6.801843281537968,9.410061186248262,g
8.22674433106724,8.08509723059095,17.672962223000404,17.440610882682584,15.378748850159118,16.002807962299354,8.099816163659874,11.70907916701992,g
9.116022435072473,7.282029803632132,18.19615413844878,17.389271586795935,17.514410257513585,15.839076926350023,8.63439247740574,13.192733352947574,g
9.655195735898882,5.824266526032724,18.023900344844417,16.91427119266633,18.33797978166671,14.880699433570499,8.316647420272783,13.68169216836817,g
9.686647470105225,4.011059580673043,17.194348269790233,16.086481961887102,17.96212043768584,13.44411832436398,7.348063141936777,13.306708607511117,g
9.219068430102027,2.0272360650879584,15.82118516673078,15.01103031509274,17.058132098730216,11.930506919758031,6.0862695415323795,12.37718625728787,g
8.328704512358609,-0.09919255180953553,13.989706054534633,13.721478236765762,16.144815351932348,10.663186417591302,4.814165159400257,11.13516342409164,g
7.0757044244812075,-2.2830148007369937,11.753025985239182,12.17556768924298,15.443259200776893,9.810656031049563,3.6115222338526762,9.624293876903032,g
5.512294869483513,-4.38336178699552,9.207949155772543,10.364482165649997,14.989264429995481,9.423555164545228,2.4162086819278845,7.7845632358015635,g
3.7655329902654344,-6.3398450518626515,6.586013315303364,8.434629958594824,14.595995017519105,9.543344000261275,1.2088926517655778,5.654831533955931,g
2.099424642754857,-8.059879867144208,4.279503235969277,6.6983766157677564,13.983776706406918,10.288939988556262,0.16720528334083054,3.4865111123918,g
0.8581582508605653,-9.235125766241325,2.7200901937917856,5.494735037333973,13.204334007935236,11.81077210546121,-0.36122301939116763,1.6792437165393905,g
0.2925896467636978,-9.555611275985168,2.13240893802357,4.984522731636252,12.684419642575634,14.10185215394598,-0.09503599343709582,0.5858339903854451,g
0.40106298503217186,-9.124489459029316,2.35388429282961,5.030421791417065,12.593424532526992,16.82939057191343,0.907530637371093,0.308420373967537,g
0.9298550962550133,-8.420417525907474,2.913130894509791,5.26218254986925,12.440342500053463,19.383911904898426,2.1969262299927066,0.6287240186895099,g
1.5431004878944212,-7.811344430923481,3.3253019271400546,5.292382241181211,11.651203887481229,21.14833887081997,3.187489722980978,1.1511510382996832,g
2.028299136974227,-7.3057154468212815,3.3616811412805845,4.937390637603935,10.377409093995016,21.781651544926678,3.522247677693784,1.5712064343680667,g
2.3926868316312384,-6.781196857886084,3.1124232016990145,4.299980531533682,9.380709908369646,21.320533999539226,3.258343336271339,1.8512395133983368,g
2.804121663567972,-6.19830480303883,2.8569944450435507,3.6703529898883156,9.200836465579954,20.06871485359199,2.7555491617171897,2.160006308234169,g
3.42898493684942,-5.538528785801801,2.851130442958,3.3177919337204456,9.698028529000394,18.369377406981734,2.3785651444577036,2.6524624557412,g
4.274241377057573,-4.811734727906863,3.1373625581805333,3.308678499484979,10.261367846247632,16.394364997825978,2.2254579702384794,3.292025764147271,g
5.1495912656362455,-4.250075009978816,3.495153220900826,3.4717668495478193,10.155412129320975,14.084601618635062,2.061701034291411,3.8431557573886534,g
5.798040122435734,-4.243019586650175,3.6035357757351383,3.538516026201871,8.873777631669842,11.300735095096591,1.5122618616503527,4.014329566147803,g
6.1084289275239625,-4.888697828690892,3.316619719746285,3.3608154087243514,6.680104146560102,8.070597013373746,0.37818446638345327,3.6485453684133544,g
6.238802340567192,-5.7723249146844395,2.816606752634022,3.0448580500874742,4.816007077626492,4.713435932746222,-1.1743916523945366,2.8434378202777753,g
6.545325046692497,-6.351763062221211,2.512457116996335,2.899425344566045,4.654463059717198,1.7358517679554932,-2.7084838877825446,1.9117149536060611,g
7.364271307805248,-6.426644551215517,2.783671534650325,3.232439190042129,6.382396137315395,-0.393500716368408,-3.802325891519904,1.189303832514796,g
8.790149664562014,-6.113498477631402,3.756602986988286,4.133200768180243,8.727197604610556,-1.4207749297451282,-4.291149111370535,0.8267339598795218,g
10.584314188794616,-5.571236129262745,5.219842703713211,5.384791966362782,10.0782948411848,-1.3630320831970586,-4.309572545013962,0.7254038244208415,g
12.279918564192137,-4.955054710143174,6.7114007238525035,6.569235989603885,9.708024543586754,-0.4473373612296915,-4.147904053143894,0.6523848477062126,g
13.929515978728414,-4.099774006447341,8.206863053400753,7.444973720322634,6.100098047920801,2.978639904763533,-3.955648691817175,-0.004016354155180935,g
13.946510481567262,-3.61512079004657,8.225897917759559,7.13516290451719,5.1640168449433235,5.377905134358674,-3.6878380981148964,-0.49840875427543346,g
13.872093339195047,-2.7284055633921738,8.205453698891871,6.657264644540587,5.881322966914311,8.327117172618802,-2.9469562653077777,-0.8766506630455938,g
13.872093339195043,-2.728405563392174,8.205453698891871,6.657264644540587,5.881322966914311,8.327117172618802,-2.946956265307777,-0.8766506630455939,g
13.99103366012296,-1.5750229325853287,8.409351470268705,6.256997851594912,7.801715614774055,11.750864508878042,-1.612177736165103,-0.9914198814618338,g
14.356601648484425,-0.5782194972137467,8.841018937659936,6.053709828567662,9.603058403941391,15.345005042972653,0.21436048546589825,-0.7900109255461226,g
14.840876935973998,0.01979130658184446,9.324932946855098,6.066175673149943,10.206922522842753,18.663519307408635,2.309660874460074,-0.28657311223728027,g
15.276086566303146,0.2802993318142491,9.676337557306528,6.274687145188426,9.570535033551923,21.260741056213146,4.459757226036658,0.5043273366057541,g
15.567737471495894,0.29497138485096264,9.830926752295928,6.651873521910365,8.328551363297521,22.81680569909035,6.512427736402357,1.5923508170681884,g
15.730270176324803,0.09613995878773203,9.895296879195769,7.161657891773937,7.037438042212363,23.236799092839302,8.374348940028721,2.9764972290474017,g
15.851324737476935,-0.14038194551255034,10.09450900786209,7.75740808007253,6.063432321566105,22.679762110894433,10.00191963921393,4.610528181893661,g
16.01771164214419,-0.10391753034406932,10.61696198838692,8.392191328401164,5.83421435903069,21.45811809665923,11.37572794008942,6.407728027351952,g
16.25310457514951,0.32421657345226756,11.45914921379941,9.026843962589,6.6191811533211835,19.85479823752409,12.445170745871682,8.24633073414556,g
16.498262070028897,0.9455736311967161,12.403943829282943,9.61274449981813,8.050074282483543,17.99509536688404,13.084121872024529,9.935275130340255,g
16.615880749650024,1.5025822775107893,13.130183661659483,10.04605377245442,9.219884157768204,15.843794145315389,13.100170429258014,11.181458492779353,g
16.400551259918387,1.8452737771564536,13.333660343032673,10.136480186073264,9.317202012886167,13.289184987606541,12.291177619412009,11.636104859850684,g
15.630314441839008,1.79762919481954,12.805296876847901,9.659300565899379,8.041842823071716,10.27187648955842,10.533654572643238,11.030240861605657,g
14.195549533604563,1.1623670172620986,11.50885598500216,8.500723750260107,5.65098123143242,6.932971916162819,7.89547464639806,9.323276909000493,g
12.232057608024087,0.038055475202223875,9.6378249824034,6.793202988474006,2.9954594803181958,3.6812411462721726,4.708945916110617,6.770138941639125,g
10.113022723837998,-1.1011425350936737,7.544214927850552,4.903474855984929,1.3183865244251283,1.05113402227667,1.4934495334017837,3.853369567981992,g
8.260072459036387,-1.8699339369198071,5.5396591121854355,3.252148016391884,1.36447161616367,-0.597891136285322,-1.2760979764105334,1.095318117367273,g
6.914372748331414,-2.380146437837598,3.7460201451327206,2.0958147063342927,2.4650696091508606,-1.2831222289321473,-3.378582368312003,-1.1533338267435116,g
6.046430760434829,-3.011416396392304,2.131352931483714,1.4283099172657867,2.8925960071078394,-1.3115947609380445,-4.854246387119895,-2.8133773019481567,g
5.449278031275203,-3.9196783824795545,0.6526857762555783,1.049280206835507,1.3932144015879895,-1.0008331974519693,-5.835737080437485,-4.001220563006936,g
4.920964446807599,-4.943562167874899,-0.6534507490741357,0.7313084614763179,-1.748030415866171,-0.45771541813737426,-6.381168814465077,-4.853799225434457,g
4.408349240313648,-5.819572202297566,-1.6745175449804663,0.3737656701458345,-5.113856518420681,0.44489265324335436,-6.426598068623271,-5.3978438591268505,g
4.0230896892924655,-6.251785461524362,-2.2751290919989238,0.05050327580114555,-7.264965764554927,1.9230114851294782,-5.842732515941025,-5.540235070355678,g
3.9189186543720416,-5.925426157809729,-2.383948616708146,-0.07755333768209591,-7.4723609571295295,4.066547525818493,-4.543076828124561,-5.1519427350541624,g
4.132477608050801,-4.7785318279446,-2.082589537817551,0.0868688689912945,-5.981954944505922,6.682826891063724,-2.595589406005632,-4.176686225365138,g
4.549296615995584,-3.233492072502172,-1.5860874791871387,0.5005409999728535,-3.9758997714454436,9.334888163009449,-0.2559440081869907,-2.7004259564873885,g
5.046648750098626,-1.8772530490227368,-1.0643643960449745,1.0518199858724284,-2.9066813516980377,11.586377129607223,2.1430952762084323,-0.9293977837534975,g
5.663510522402649,-0.8772066506023691,-0.46226498041776887,1.7041232886993203,-3.311444637055525,13.255092779386175,4.375239104616016,0.9258402691308465,g
6.596080834658501,0.08566216777890263,0.46359604905628604,2.5523577178159633,-4.257647775630685,14.44093568868118,6.401543495226216,2.767543638416323,g
7.997837236933721,1.313880570652285,1.8947695974742114,3.7161626747010197,-4.205639755402655,15.317536609672459,8.265079450468521,4.6030322216638115,g
9.770437380596999,2.7420503049691662,3.7206241149974146,5.152497402149478,-2.4044372677835897,15.898687023052423,9.906368369946922,6.401794138876584,g
11.542653656758587,4.067216050994478,5.522880783182713,6.554403270822587,0.6078446341825853,15.970274306618236,11.069970735240105,7.963784739184668,g
12.865921727671369,4.960802768358728,6.766341907390563,7.446959237299913,3.552547861408873,15.20750445827288,11.372803237179927,8.946581527356873,g
13.481286904073972,5.1203919068308545,7.060642651394855,7.4403975184330715,5.164402807777077,13.38535929476509,10.48636024753761,9.035243503725061,g
13.45727760694746,4.413086090183009,6.34434289997032,6.463259481957776,4.751499409280538,10.562574913343916,8.329065605751435,8.106197680112071,g
13.085557465924172,3.106782099783285,4.87054386096599,4.7903868501578915,2.6087302402296197,7.114314243653584,5.147301790964707,6.266271086872048,g
12.607751763995365,1.7304974371512756,2.9806116601700525,2.833787460869305,-0.1100220011910856,3.5567027913464835,1.4045125699834886,3.7640638215766193,g
12.00430863580886,0.5454016024774084,0.8442371248255615,0.8644687022432468,-2.3986148897185426,0.28040916393958215,-2.45978618933664,0.8532502354405592,g
11.04265406574781,-0.6697081938778002,-1.5848578969867455,-1.1037834980194057,-4.413072728118101,-2.5784536182078996,-6.199070209961744,-2.2865259142357806,g
9.547885312120199,-2.1679897886594746,-4.355104169850032,-3.1818286623221557,-7.179279734010814,-5.027573197489729,-9.705220171332988,-5.498720106000918,g
7.6439214685239705,-3.7554466882798545,-7.281366202438994,-5.35849197933996,-11.210759672423054,-7.006844901568582,-12.806628102370976,-8.513540958666294,g
5.742903014993634,-4.930070147058013,-9.933759053225355,-7.3684517849342495,-15.700216719727681,-8.290100939068784,-15.145981314786713,-10.891609577552646,g
3.5567843550045817,-4.920041085276715,-12.732053139623174,-9.291992462542801,-20.491380304713378,-7.62424191436961,-15.837459258320902,-12.0881159402717,g
3.4480233268068767,-3.7777436500508124,-12.597769214187121,-8.817047422812491,-19.68782175594722,-5.475499801542741,-13.818709321513595,-10.755681378285885,g
3.72522372548544,-2.1506076458488907,-11.671529124344577,-7.605457448696799,-17.543269340006738,-2.415356373740704,-10.512801572498713,-8.531813867656114,g
3.72522372548544,-2.1506076458488907,-11.671529124344579,-7.605457448696798,-17.543269340006738,-2.4153563737407038,-10.512801572498713,-8.531813867656115,g
4.135211930130682,-0.4145398532563377,-10.27877598016747,-6.051528067323898,-15.268421029033501,1.0797574773594758,-6.452308166652299,-5.867309741438607,g
4.53630247173891,1.1584419433185045,-8.70032775303423,-4.525358051853119,-13.733383253039875,4.524686148456354,-2.2156933502436957,-3.1694373821646713,g
4.903684501275896,2.6260233376147877,-7.104604193223977,-3.2474581869028705,-12.794158103618265,7.564452093524542,1.7410453997022757,-0.7406163010706451,g
5.284075117376855,4.182413291416678,-5.567228961586226,-2.243657242798598,-11.482721533616612,9.99364688371429,5.149290634664654,1.247858289821481,g
5.77374309707022,5.805804444008224,-4.106688613977029,-1.371133242634434,-9.09055612465472,11.695515511739048,7.880460266076971,2.7437206328198163,g
6.5200295832461945,7.30631297238494,-2.6821367743402798,-0.40753553948661503,-5.946555697906926,12.594619604022306,9.856952897529327,3.755665750029295,g
7.68131376270486,8.650290550687483,-1.206740700153457,0.8142439266788084,-3.0257154962958435,12.648736800074948,10.992720623864894,4.294967637999277,g
9.317504119486774,9.961113744501155,0.35814857993327465,2.2802270214021694,-1.0724488901559677,11.846626083391783,11.18469174499699,4.364843455556364,g
11.283808210001887,11.198665105476273,1.8925114629344109,3.75566391532397,-0.3025272434931968,10.21185549107166,10.35462997958065,3.9841200742952267,g
13.233791936484007,12.11855857397136,3.124451983189323,4.87369805695244,-0.5869305147962021,7.842544069499364,8.538986337836551,3.2128046715190535,g
14.753771567035823,12.621499724622527,3.7706333906981926,5.31515180088379,-1.464989530975135,4.964910659948062,5.982080850255239,2.1827219893488268,g
15.540559737064607,12.90986696973803,3.6855102577437244,4.974521922761545,-2.1477304785743123,1.9338021764724052,3.139552297208522,1.122847666939617,g
15.504583445594864,13.206508154628214,2.912311035575342,4.002786989492411,-2.036039625107356,-0.8383969878774021,0.5422961533957518,0.31212032369709614,g
14.738965980245066,13.514157234000972,1.6352951421452022,2.691674898534413,-1.3450446297296668,-2.9780748071695538,-1.4073944176270194,-0.06900431704973942,g
13.386872050850934,13.721734103653123,0.07537569717120265,1.2784618145996531,-0.9424201228235095,-4.235785104944672,-2.5711505963118055,-0.07759026286342682,g
11.51423801405316,13.720199104795194,-1.626603856161927,-0.17894443032504456,-1.5257342243899217,-4.551464653408762,-3.06229365976939,0.01787864672645379,g
9.105665331320484,13.310328283564207,-3.4546162115657366,-1.7508001062123075,-3.1267799259657174,-4.057746828517225,-3.1053604361461336,-0.06200638451961875,g
6.207914771895068,12.253622019991543,-5.413990794255336,-3.4444597754670006,-5.273029122111979,-2.970456251695958,-2.847858772818056,-0.3930559993063413,g
3.0945029860790267,10.620740258868526,-7.353446147372379,-5.040147791753115,-7.271007841299573,-1.4248787744490745,-2.2391699634637647,-0.7859597000048737,g
0.26620521883896053,8.916791143429833,-8.920751178562426,-6.120290125531032,-8.414917841729224,0.574659464732292,-1.0872474948860198,-0.9215652034917717,g
-1.7667901965687043,7.646208900267017,-9.751750302440069,-6.307289227471457,-8.418560826752614,3.01040194353991,0.7095844240962205,-0.6003467185670951,g
-2.7620656819730622,6.8594493195142165,-9.729395217923495,-5.533804743135886,-7.78616407583705,5.653502938055274,2.939863621589287,0.06399856608944135,g
-2.8477161126397066,6.291304222066854,-9.05929491776788,-4.111994744990932,-7.371451343515902,8.039892196141587,5.094280241972703,0.6880258421525299,g
-2.3648166698313644,5.8027325077758105,-8.097106478103091,-2.5224732108187324,-7.380565232330257,9.680767323161223,6.648932209400941,0.9246363665328159,g
-1.5882225746196312,5.485147694868874,-7.088669034327465,-1.0903806867769126,-7.118582731328859,10.345841606713357,7.393959448811117,0.7950249515651998,g
-0.5576548493652704,5.4709885773222675,-6.023154921632861,0.17715607273714512,-5.8931365675669,10.198680636832584,7.54783315325769,0.7265955055425428,g
0.8507947757719876,5.903314436027234,-4.693467264363666,1.4617402798689225,-3.8552737582498944,9.675501412021218,7.584877516344918,1.231200947537499,g
2.6811426057429952,7.003172933201772,-2.9266955725735118,2.842952363476061,-1.7409212267819676,9.171572703019686,7.907442006319752,2.498318926181203,g
4.696167515481655,8.867244838224028,-0.8214568278020014,4.114527017378477,-0.07812006443350628,8.751739186095488,8.579647905600774,4.239777267056512,g
6.414146858881969,11.190737993003463,1.2249446737241467,4.877415874782242,1.1212412035457928,8.132518238670325,9.306217820495144,5.8849660089996885,g
7.386547510351228,13.433177920073721,2.7676260129394743,4.837799650308353,2.187253235380227,6.987476164081748,9.688298450594004,6.960013913329479,g
7.494406280132855,15.278554608806555,3.6292449405662417,4.055449699059853,3.5941591147314798,5.314767585820327,9.561370439607764,7.3807619840084415,g
7.002830574055215,16.72250404283384,3.9717550296717015,2.9206280168410172,5.639236374214844,3.5117724945966478,9.117844643787056,7.452831618742815,g
6.325746549392019,17.726243937154464,4.067296919602403,1.8701576511758713,7.944195119038016,2.0817002150244557,8.70568493274791,7.569836574892797,g
5.710075264274117,18.07095555480417,4.01394399588772,1.0827954709939587,9.489832378043166,1.254834118121542,8.509025537296239,7.845902446079056,g
5.090325711412031,17.61661814619631,3.645804846201616,0.4010609489497273,9.567834121149266,0.8497298278955812,8.404167332306596,7.995231384827498,g
4.183351493691739,16.43415275124532,2.65510012453181,-0.48965100197883366,8.608714898909893,0.43829646482895124,8.073092663672352,7.551683384554619,g
2.707363668257895,14.571223634235988,0.7937303204275944,-1.8056421000009386,7.7046043360122285,-0.3571662554812952,7.231888232291249,6.214706593673104,g
0.5692146507030146,11.9390531803789,-1.9578829543939498,-3.52825424129298,7.368529815973323,-1.6395988272575313,5.808051079911043,4.043801492654589,g
-2.0734958591170525,8.59475909816232,-5.326097476705494,-5.437901824726671,7.070344368088445,-3.20617713825938,3.9907311674919774,1.4191701210604408,g
-4.888773256801885,4.94483069136382,-8.831466588853187,-7.240910329359478,5.887766478800456,-4.715287647205085,2.1442518519011946,-1.133432748929001,g
-7.522789334863772,1.5118350589207445,-11.982317367085084,-8.685865919011206,3.262570652324287,-5.919189346078748,0.6353131618484883,-3.141050094387778,g
-11.365136272733736,-3.321645978591216,-15.977146576675233,-9.957251545146514,-5.3351009203418585,-7.334569257505578,-0.6168843524761655,-4.686421287614391,g
-12.41459465400988,-4.15001858694267,-16.562363106158585,-9.716221774446193,-9.220257369998386,-7.662164319182979,-0.31742290153921215,-4.335316522058237,g
-12.890830362497592,-3.7813811259463015,-16.22959059046346,-8.976096372532183,-11.283744703966885,-7.759417520809696,0.49015585457163413,-3.4656353542577802,g
-12.890830362497592,-3.7813811259463015,-16.22959059046346,-8.976096372532181,-11.283744703966883,-7.759417520809696,0.4901558545716343,-3.4656353542577802,g
-12.858054696693113,-2.6255005630929196,-15.146152077922455,-7.910722555618437,-11.589102394761529,-7.6635018274852555,1.6088389844514466,-2.264076951543936,g
-12.408158752664459,-1.2270827437785772,-13.535246915546375,-6.73407930439806,-11.285362519888483,-7.473496527183684,2.7678654135629976,-0.9208619449845342,g
-11.621291422689781,0.21709106769408795,-11.567987924202805,-5.5906746820552735,-11.34590101585624,-7.2861134259647855,3.7383242641010517,0.4109841639281431,g
-10.534495673049229,1.8553661040418596,-9.317888478532435,-4.46945871521424,-11.575676514450823,-7.109456076192219,4.449926938868427,1.6915537081665453,g
-9.154585035384152,3.797682415300362,-6.810848339618502,-3.2377056016673036,-10.956432288904168,-6.839825196705751,5.000234690441516,2.991416568673603,g
-7.523019585041199,5.93630140991243,-4.113180416232465,-1.7963494182126454,-8.686529154838926,-6.322626513314137,5.552701277814639,4.368147402110333,g
-5.80560452087222,8.02980615776533,-1.4063377642972736,-0.24173064392893656,-4.796924815897171,-5.470450723427037,6.202943324875017,5.736508090022174,g
-4.33659151910601,9.694779819790536,0.9885390828299956,1.1115477363627906,-0.18061723379562125,-4.363215432156473,6.902384295315143,6.870517630765606,g
-3.529113350044861,10.397253350829406,2.7024234369304216,1.9020637742407271,3.715250447989041,-3.2198381398327305,7.505150985840466,7.549460026816156,g
-3.6491874324056406,9.809972285407378,3.5342638875666212,1.9856905285614825,5.672660853281918,-2.2193717597717333,7.928903129424192,7.739246421664109,g
-4.609497612089813,8.254550942324892,3.625028316809118,1.5817553481093547,5.7262595485137195,-1.3368479875573123,8.28946925925749,7.668391198375349,g
-5.986766133207608,6.518054844673186,3.380280822457818,1.1471223638632169,5.284406942285261,-0.39577994034788083,8.835717537513569,7.703606994136747,g
-7.293628785349523,5.102284136869089,3.16310547042298,1.0419787932197195,5.777371842670124,0.6905657579962137,9.69738473191379,8.06177831625797,g
-8.302601339301145,3.8009732909313376,3.02633688247868,1.247291865562725,7.141784953443503,1.745203385040977,10.685450921450917,8.567933179606547,g
-9.171723508862296,2.0377052222969403,2.704765862110926,1.36951233729921,7.885220970889193,2.405489335020023,11.358155745834877,8.70083958021415,g
-10.285945623506766,-0.5855757385858755,1.8381228002009178,0.936307763633153,6.6095422483556305,2.37332404269389,11.305218343471145,7.946142663699135,g
-11.931473217744074,-4.072346821867099,0.249738555631209,-0.24007796467278855,3.30340856242323,1.6249929790564202,10.416789909101249,6.189107804481539,g
-14.023008149905532,-8.024976852291477,-1.874606672818895,-1.8955266212493673,-0.6513943592711682,0.4485414784412736,8.956821816883735,3.835196375430639,g
-16.073305341215217,-11.687729872147575,-4.008827071093164,-3.452490665684853,-3.4105740099483546,-0.6933435501703521,7.42398726360171,1.5902669713628934,g
-17.438967610426694,-14.263072277036633,-5.526451202392348,-4.352493811262679,-3.821557406061763,-1.3868874541933782,6.302286669704421,0.09618217482040112,g
-17.675988730520267,-15.452858844044524,-6.016151307194956,-4.344037877940055,-2.2489099792511653,-1.4303291696135805,5.8529219750222214,-0.33291851975515013,g
-16.758906340725613,-15.608094949591447,-5.443308115939371,-3.547428401080366,-0.3836015702364497,-0.8239643685655752,6.06934582613355,0.2395999239167681,g
-15.03662930443694,-15.221401024546022,-4.0642932952119555,-2.300775828123549,0.20919393737949754,0.36604096004831316,6.792664552309122,1.5067087916489743,g
-12.988763526800247,-14.405997305291427,-2.213805557876692,-0.927796818302568,-0.36481948413425636,2.1049981194398115,7.859015102118489,3.1304637945878544,g
-10.944019281539179,-12.979337912398918,-0.1267371355779801,0.43030541618165746,-0.3799291367657308,4.366788523152015,9.160843210199353,4.906922767086873,g
-8.912834506312333,-10.84376283387103,2.1463857969377202,1.8488537436955006,1.828340591610348,7.071531259027935,10.6229977706795,6.790067810392476,g
-6.629536446373928,-8.074931227634682,4.717764577285999,3.5172715381430186,6.361885361908314,10.075974860810131,12.160702034104421,8.783075001598052,g
-3.797272649620317,-4.81768825023647,7.711030500494748,5.556236214202912,11.80165082227312,13.193711013898627,13.647135873333818,10.802224449372384,g
-0.3928247179103533,-1.3876510063491778,11.03365833446281,7.858159363015794,16.298962489357557,16.187833312483647,14.883082096957335,12.613243070543469,g
3.1772507370896412,1.5991587140315935,14.247052520659803,10.049902436193511,18.577264326374305,18.759584835387756,15.595347334349068,13.86136258929445,g
6.190177400244363,3.4866071759035036,16.675804320064906,11.610253733687426,18.463270942242072,20.593701143321027,15.513896879359589,14.178501696470178,g
7.93542468044776,4.006391286976183,17.706178771263836,12.096048615803834,16.929057681902776,21.456582006482872,14.516831274604737,13.356066147136701,g
8.070157373319988,3.3058589313005635,17.083875859360784,11.37246972112594,15.398213009916441,21.288879353900256,12.749634393730764,11.52161843664235,g
6.7877026141128765,1.6357148115258866,15.04162041433717,9.71102056414448,14.575707043934367,20.246788707612748,10.620757151094931,9.176059083975105,g
4.674259897767173,-0.762249397276763,12.1807712783887,7.65629809841586,13.942746557337653,18.660951431275564,8.650175961474387,6.993887187829505,g
2.3192898777477158,-3.5384690161762173,9.136487242033553,5.706602216451992,12.530054570246481,16.887219198839155,7.231945782501512,5.482440639236569,g
-0.0603947801516171,-6.353822731281045,6.200774676525858,4.01611524269975,9.985703683704351,15.096390445660163,6.428541791421651,4.73147089670045,g
-2.6972769940764953,-9.205959680283758,3.181907358875,2.343209977039167,6.699665634664706,13.159931798886825,5.930045850754714,4.414242694827715,g
-5.979846100807153,-12.385817296136688,-0.3440411061517327,0.29542714689982025,3.2171453798300447,10.766898936672357,5.24127499617047,4.02323137873511,g
-10.01080063261433,-15.988563283866345,-4.56158610510081,-2.3004535795193766,-0.04832458165400037,7.710320534165194,3.9996738225497195,3.1967438680495475,g
-14.35014919309262,-19.64226631926444,-9.10653902502824,-5.165728953622193,-2.7340845026960383,4.116562268899062,2.203112438628891,1.9502986507808475,g
-18.12572637887442,-22.785252240638822,-13.16035760315982,-7.642885458234396,-4.696835227207802,0.44551333300448553,0.1860344417209538,0.6603532873647942,g
-20.79018085550249,-26.055890384869485,-16.768897198406357,-9.055404271728342,-7.950940011098561,-4.99362646206483,-2.957166059432429,-0.45512067774713855,g
-19.353331630647585,-25.844902747765957,-16.07757941940558,-7.94983107137061,-9.699098206881676,-6.3532744171364675,-3.891860591422673,-0.2826670168280269,g
-16.812297219197905,-24.63593366742566,-14.508256027901325,-6.419503736179154,-10.956958779041539,-7.1716921240574525,-4.7347613750874915,-0.1637135568155071,g
-16.812297219197905,-24.63593366742566,-14.508256027901325,-6.419503736179152,-10.956958779041539,-7.1716921240574525,-4.7347613750874915,-0.1637135568155071,g
-13.972890782760047,-23.03626276917577,-12.85082034672431,-5.151624418931748,-11.306255564159718,-7.894504685140549,-5.781312617966981,-0.49588947657036,g
-11.329464756896844,-21.51226630329624,-11.484950499310756,-4.420588870406766,-10.822062042692544,-8.645638114139246,-7.011212040666176,-1.3112741877897949,g
-8.913085574635206,-19.984229446782948,-10.23294809018307,-3.99769943305967,-9.721325487966729,-9.065592656830184,-7.995819562751739,-2.225203581242298,g
-6.499639959289119,-18.0683959960784,-8.658664805911616,-3.4354173036039635,-8.052703828552023,-8.562140371691882,-8.142404132000749,-2.679152873144415,g
-3.9698601612140374,-15.611346032329276,-6.531238147348885,-2.4949662490646096,-5.852631229888921,-6.775589089298448,-7.11968074552758,-2.3385950612847086,g
-1.517401887901403,-12.829447970899201,-4.063157506729707,-1.3878170457582477,-3.248534250471039,-3.8777289889454876,-5.133742292203621,-1.3670901608735808,g
0.4329017915893349,-10.090503401803728,-1.7917118076189014,-0.6669951538868822,-0.2557251303285078,-0.5010047877342041,-2.85131720768063,-0.3602089185405341,g
1.4985689085404768,-7.807139019949288,-0.2633619975742834,-0.8735194988509744,3.1579858744723657,2.6072511215172582,-1.047446319234485,0.015797777577215278,g
1.599999133048685,-6.4077421230592435,0.2586780574047107,-2.1967619015824007,6.573837152393567,4.965158133568435,-0.21473531052069691,-0.5879410279344784,g
1.0452222168493916,-6.057368939976372,-0.07699101855223767,-4.361460011534061,9.034274977853126,6.552441923990649,-0.348275606694535,-2.0360260169207587,g
0.3876664760513716,-6.3700624142932885,-0.8105615155505562,-6.78465474064015,9.807594371838963,7.707749975599503,-1.0161959278264439,-3.8199749703873507,g
0.13503370143759377,-6.657336963569302,-1.4583406763174156,-8.880112215171641,9.07881182288047,8.790844317460474,-1.68296926390748,-5.349982298743589,g
0.48554547784523583,-6.541470104974058,-1.7953779693655456,-10.31597741366545,7.635998366779307,9.859986545074685,-2.0825285493479457,-6.271088385235273,g
1.2549885816612278,-6.17979857823258,-1.9240508619198473,-11.0836043300963,6.057028889915388,10.61628385661125,-2.3713664350405588,-6.630631031167918,g
2.0200991191247297,-5.923902074140385,-2.1125689318706145,-11.372626706398204,4.431944470166706,10.628839450866419,-2.9538403157794932,-6.778450362822339,g
2.3600669350552854,-5.997085805003286,-2.577364282438559,-11.369869477822126,2.6246431154948886,9.623511429938876,-4.139663173050299,-7.058262320693413,g
2.0530146932928846,-6.492920588613664,-3.357196765938329,-11.11984910271389,0.45032251718990574,7.633356001686747,-5.8974493983253735,-7.523199566596686,g
1.155886114942141,-7.364336020714958,-4.2901957576767105,-10.510839161456776,-2.221508792650627,4.978826928016536,-7.843013248425422,-7.885121443481863,g
-0.042677078576623596,-8.288946588289637,-5.071587155718538,-9.36881171092069,-5.131908259636161,2.133648208444951,-9.433052031503825,-7.7088759876004715,g
-1.1792090052268536,-8.815159889834389,-5.403246338250126,-7.6049827784348,-7.493264186343626,-0.47728179535439236,-10.255255028664688,-6.704044932021229,g
-2.0139933455157246,-8.836891003674959,-5.182769581949107,-5.345891398632932,-8.59091582930758,-2.6661366262057276,-10.265023593527005,-4.947128955481681,g
-2.542481555440351,-8.753914542814021,-4.577657743900583,-2.957491656278833,-8.508804979625063,-4.516835972138437,-9.800771239779438,-2.9055322991289017,g
-2.9187409441100294,-8.995293388563379,-3.890037791113518,-0.9041386454469886,-7.904205795049836,-6.204998745145316,-9.320050899729312,-1.2028153804375818,g
-3.2334400379192827,-9.516648192026038,-3.3152451958392333,0.5037372021342482,-7.100213582454191,-7.734543379674436,-9.029794954651985,-0.2288805184959939,g
-3.327398869489594,-9.885308109036178,-2.794442355797496,1.2995778255824235,-5.821190047196117,-8.80899681544255,-8.707981576468836,0.11957263702639132,g
-2.8163661712018744,-9.680423674745906,-2.0641973212927742,1.8241093785962577,-3.8669015945810115,-8.940305487228864,-7.866576951001105,0.3248406052749585,g
-1.343061871884036,-8.660998898833816,-0.8577498040561359,2.4669240250358877,-1.5950381596487861,-7.7194916373985105,-6.126303940243945,0.8306469321609787,g
1.1177317956076582,-6.766569102882711,0.868484106536717,3.377303935163887,0.45367701234384106,-5.078194929233321,-3.527113929914539,1.6694039784407013,g
4.139409440830467,-4.238397692856777,2.832029172745412,4.360962826213975,2.0786265695932316,-1.3770043381782093,-0.5710386660855639,2.423895543068313,g
7.017384978855782,-1.6467768191710488,4.541352122576394,5.020565678163991,3.395541093704671,2.745483185540214,2.0172226499674815,2.5089310081031053,g
9.117679264525334,0.4667429383967082,5.568739990574646,5.011086192473551,4.590584942943245,6.661528733955019,3.6501398945403993,1.537480755428174,g
10.155950012822132,1.968142770836869,5.768613814076144,4.2286425906482705,5.844760437084866,9.969878882662282,4.124569683893596,-0.45621167689865894,g
10.24272160006339,3.003571345230185,5.282574375281632,2.838215228698129,7.140435776498083,12.509686594460765,3.613358556404539,-3.0382258541931377,g
9.717364117758105,3.598412292920949,4.377296402888199,1.1595185087150799,7.896957477478772,14.240269020303893,2.455228068895082,-5.611983798884548,g
8.915827206945824,3.6107734748186595,3.2768211302526398,-0.5036430057757191,7.148529191657713,15.138463893199892,0.9310729047145827,-7.720698911436459,g
8.015895162405021,3.010638605005666,2.0872645932879386,-1.98549452279375,4.481765815973118,15.179952527135683,-0.8247480872960669,-9.20992906455037,g
7.030273042391022,1.937756194622255,0.818108704795314,-3.2550059494596097,0.6644710511881805,14.376255360468054,-2.767334764513066,-10.148929096322941,g
5.922781999459279,0.5015034084170745,-0.5234774859045151,-4.300377251627587,-2.9171096842877415,12.832110024305305,-4.821127652846249,-10.615558307308422,g
4.7405210541732785,-1.1991230425737818,-1.823128055825995,-5.013227482166771,-5.299828242140537,10.79005374769436,-6.792819632143439,-10.549789999685704,g
3.6477395777313264,-2.825245877619701,-2.8424624119136834,-5.1860167763244664,-6.265120336936304,8.60350650248846,-8.3853064123146,-9.781410502123936,g
2.845333859356669,-3.8499580620059226,-3.342048341202748,-4.624172951179668,-5.998515283340571,6.620779288205836,-9.315157131196447,-8.17534894855491,g
2.468266325359658,-3.976145518785102,-3.230321806986911,-3.2713769644387347,-4.8958043316389315,5.071991989165198,-9.446480548716588,-5.774229764466449,g
2.9947588681629442,-2.127718450181352,-1.5698494923476956,1.1124420626678515,-2.2768314436193977,3.6338892485478427,-7.647228138006971,0.15134480469038003,g
3.6356645010831437,-0.5580130330549953,-0.359746859566169,3.455154151338218,-0.8940834302494531,3.777698425668203,-6.107159195290306,2.7787799861541203,g
4.181314613148766,1.1678163492264084,0.8248330044966622,5.366476771159244,1.1804141023773251,4.365355533218188,-4.428333164360996,4.700496727256049,g
4.181314613148766,1.1678163492264084,0.8248330044966623,5.3664767711592445,1.1804141023773247,4.365355533218189,-4.428333164360997,4.700496727256049,g
4.3253238722022465,2.6551866629666208,1.7185551893225324,6.531655523874913,4.065845842572621,5.119087076057372,-2.815131124547162,5.761004389233246,g
3.876450659598163,3.58191719409894,2.0811568555964715,6.787614032767742,7.208644473036701,5.684246526818029,-1.4320344056297487,5.93247295839895,g
2.858748209783316,3.899874198275196,1.788079244361,6.13255575933868,9.847385222463329,5.7537092970101735,-0.38005570740858624,5.256579448184278,g
1.504984277043875,3.6579154324038776,0.874058949258373,4.699235549168524,11.381914657038061,5.1731222785440245,0.2992131304967295,3.8352600643659636,g
0.14783805425724106,2.8206690346026533,-0.47125654702023106,2.7145068542102044,11.379901802792258,4.001970609820349,0.606320686790039,1.841887130548716,g
-0.9496108925360179,1.4436711647267528,-1.9690671883407564,0.4254354524950969,9.740761471303532,2.4880816860466672,0.556940697538996,-0.5101237403315702,g
-1.7530355886051745,-0.1633566190117385,-3.405911352066898,-2.011815008911536,7.016265145004167,0.9139865744879072,0.12384947172945485,-3.043504122835748,g
-2.4822903691686466,-1.6859308913694662,-4.780108918533866,-4.5905157297900745,4.169458832981847,-0.5863838328859166,-0.8097590581872189,-5.663242048115004,g
-3.4168625833202517,-3.0784787888678005,-6.2440573299193,-7.3511084016589,1.7709066955162676,-2.0325359667943657,-2.372853989967094,-8.300090493476763,g
-4.593343686637945,-4.344748926082923,-7.827574595227179,-10.165263289622633,-0.3384542489821194,-3.3834097637779976,-4.497912853780841,-10.775125306857374,g
7.137336452103568,14.209727123320956,8.880126860153444,11.473872020934506,3.138491439535528,25.078392510439176,7.85604887758115,1.304028311248203,g
7.405513465287551,18.201576409989332,11.037014240584675,13.933141423820164,10.507961951254796,31.58418921302184,10.881287630359454,5.68667919369832,g
6.083312305209107,20.124169513534916,11.172578742806003,14.518799355221168,15.890337083839224,35.59012989346292,15.449560829418994,8.704067398085083,g
3.3094021782248446,19.57767116018125,9.358317801740476,13.270527258548233,17.85560907505783,36.72144133117209,17.78868833243802,10.101736250284116,g
-0.30974517191369555,16.952082938765834,6.164586050977119,10.630961940135075,16.56520717368415,35.175245411600976,17.906739805559376,9.99629874798782,g
-3.955540365562412,13.229148915681424,2.3714904787882736,7.211789735891562,13.642400890608295,31.553788358342654,16.23359400566909,8.727819274407793,g
-6.954396302863472,9.264894428079412,-1.3951551547593186,3.5424461016953046,10.840501993688108,26.53110354699914,13.329379817924965,6.655639171645416,g
-9.033271129929405,5.311765121314481,-4.874378988969261,-0.0945576858675576,8.623027428672955,20.576597105486048,9.57768753465783,3.9787295012436616,g
-10.336654170847245,1.255051064252627,-8.1182688504159,-3.685253928203463,6.163683093226912,13.903137265839225,5.077659387775715,0.6850331668037283,g
-11.2085939630293,-2.9136553268723624,-11.262660074313526,-7.347620961802439,2.6299183524785112,6.631965750051559,-0.1949687041856734,-3.295070423682791,g
-11.878767813536218,-6.9746808468551675,-14.287757140698139,-11.095346097420142,-1.8589794889159914,-0.9593035497621649,-6.085494216150352,-7.81458181768911,g
-12.03959292915895,-13.232760681739254,-18.65234731201678,-17.52185352162264,-10.28991307230145,-14.452207904515552,-14.254264863568812,-16.112695725195486,g
-10.97101314853274,-14.438942190888834,-19.190118454578638,-19.213726569998247,-12.847786656386313,-18.70498971061982,-17.77770369983938,-18.433297518943753,g
-9.226041090047312,-14.09544453584275,-18.60267309822544,-19.626748533084488,-14.137530447319378,-20.68859946133831,-19.29585056907223,-19.0946186757944,g
-9.226041090047314,-14.095444535842748,-18.60267309822544,-19.626748533084488,-14.137530447319378,-20.688599461338313,-19.295850569072233,-19.0946186757944,g
-7.405314825985539,-12.758797264157836,-17.429853128484645,-19.131632847111913,-14.688684513028708,-20.652657727486318,-19.096532944501767,-18.45986876933089,g
-6.196988954717637,-11.197647844840182,-16.327705573208135,-18.34901352455023,-15.061741359926378,-19.17964467322192,-17.85802806815685,-17.233102369453977,g
-5.90506583567119,-9.689755641296266,-15.61008372621985,-17.726988205145183,-15.098313988026897,-16.731400479842847,-16.121042911863768,-15.986790331337023,g
-6.2192985957308045,-7.910625964193417,-15.048286070706684,-17.231376910375896,-13.934109657617421,-13.379694825847142,-13.923101178975216,-14.777083813036716,g
-6.408075652725772,-5.433347576415553,-14.06816740252342,-16.384620218395376,-11.006874756220665,-8.910153760205528,-10.8796759506314,-13.156237681096439,g
-5.789053783319366,-2.1280911291312337,-12.159395585242434,-14.628667052779296,-6.809106962151714,-3.1696227363560316,-6.611591516673502,-10.586126229632715,g
-4.1441129331583095,1.8264295554062262,-9.20943872640433,-11.7471603879344,-2.402059876235358,3.6149488186068353,-4.127045664726338,-6.918599667928201,g
-1.8153147934342713,5.993127019335389,-5.585517544295142,-8.052926705907382,1.556160920855738,10.74913431232206,1.8669414720558972,-2.577111593020549,g
0.5441954573791234,9.706583317933745,-1.944195750435431,-4.234537522330607,5.01988878306299,17.26997262500612,7.446339952438414,1.6495087815354132,g
2.3615537946271923,12.363424895638914,1.1059123028255713,-0.9975148087692833,8.075167513231504,22.31877957792101,11.717044162553844,5.010077541330468,g
3.399815550704222,13.819749846858747,3.255501543589996,1.2463432435275785,10.647395368510697,25.43988245160614,14.216053042158018,7.123595746813164,g
3.730818129923729,14.320956613104368,4.4850382579829216,2.4592083529639908,12.529422582255846,26.598896576189087,14.975836135326125,8.06248303413394,g
3.5170041046205918,13.982400624582485,4.862912023887409,2.8324148167722996,13.314780929281074,25.965540254336407,14.296918151152635,8.167784739700737,g
2.8280561200371315,12.569251369661059,4.394550275640755,2.572771377464419,12.420799766231173,23.71189465113009,12.464033316997014,7.750902389277442,g
1.627115509806582,9.878847797635421,3.051029863408581,1.7761632448982094,9.598899600778724,19.991604478165833,9.632756854543098,6.908867388661244,g
-0.12877744347074244,6.097996748545275,0.8700210142268349,0.4276423673777199,5.404179872466767,15.02571210622869,5.892413373443788,5.557909268255883,g
-2.4008773067995355,1.6452405076096277,-2.014009227312973,-1.5283513805752376,0.792506306224244,9.149138988718576,1.366337389060725,3.5886257953495906,g
-5.042724482203755,-3.1094941065003736,-5.399502649417201,-4.10515686079204,-3.74439297298654,2.795604717511291,-3.7282549714707023,0.9889191295280411,g
-7.8090551792794995,-7.790111897115898,-9.026128548898878,-7.201321517017682,-8.300228779259994,-3.527314239004057,-9.048105031515721,-2.111360442910789,g
-10.378640579639628,-11.89787115662749,-12.56176668573269,-10.558187130809868,-12.860210450308122,-9.275397246857299,-14.12729574884978,-5.437045724083778,g
-12.390034528778061,-14.999484951561627,-15.613509061300661,-13.774320349590766,-16.95005953324782,-13.938715536675655,-18.449111419264426,-8.59725706674436,g
-13.481149498484267,-16.920292762698008,-17.75909045965693,-16.381289976903936,-20.08875457564017,-17.10536512962701,-21.554508998831274,-11.166004686439361,g
-13.337798724997802,-17.57142568718528,-18.596301097228686,-17.959112578546076,-22.18731778017338,-18.48331982667175,-23.116266090974136,-12.787503068173129,g
-11.789776653023583,-16.75326851431906,-17.867489010294015,-18.267339029453545,-23.319883365406277,-17.937573331696544,-22.982554415407325,-13.256742350544254,g
-8.95520493324386,-14.401063307555791,-15.658161554861824,-17.35680593681803,-23.437580514350312,-15.590473148487693,-21.24338227558598,-12.569552551267844,g
-5.326523741167646,-10.944377207499466,-12.501896752188806,-15.589902750711136,-22.500999556559904,-11.888942203615589,-18.280255813688047,-10.946066276832447,g
-1.6631005276190662,-7.15653274109304,-9.212360291497342,-13.500202676594892,-20.582716130815236,-7.494730719905926,-14.673663238018566,-8.771125866809786,g
1.3101945434897435,-3.648743093195795,-6.499568262601312,-11.523771607197771,-17.634264716004374,-3.0211022818280426,-10.950373158342698,-6.404522006196492,g
3.2221042256970995,-0.6754840450139497,-4.644077665367486,-9.76703076531014,-13.485149688092202,1.187040677081146,-7.347764196365359,-3.964485839591198,g
4.16966170509227,1.665489346931512,-3.4585219042606483,-7.999626893849888,-8.377227270017531,5.067534289801655,-3.800300401296122,-1.2971951708143132,g
4.530400646790557,3.3129056532664434,-2.551099888570329,-5.919572703812299,-3.2547907604205633,8.658537170578441,-0.17464132174627736,1.7831212766835987,g
4.582883758699067,4.285822546900041,-1.7210426638113294,-3.523472712934627,0.8067473941008672,11.853728503343266,3.4162624165241753,5.161929858886347,g
4.21459315947749,4.558253140479077,-1.2199059648618675,-1.2929847495246483,3.332345502188695,14.26973990427957,6.457025730983423,8.288884050187386,g
2.984381325160034,3.867243603616874,-1.640248746021729,-0.0012839601472448337,4.417301570991109,15.364670183682637,8.190417367758975,10.377457575779541,g
0.5503836523604335,1.940598205931392,-3.436661138518062,-0.22265302832636005,4.256031912726702,14.783182805605568,8.048690155731077,10.824143787928815,g
-2.8624684588611258,-0.9766513066464195,-6.436253193655398,-1.8916287775810363,3.070180964022685,12.674093910466349,6.067870764732366,9.571756747232243,g
-6.375320665040136,-4.0540875151388125,-9.784694999637313,-4.2659904946231775,1.3013352270500678,9.683336824432196,2.9392555943595444,7.159869533096108,g
-8.881792938511666,-6.473643051896383,-12.418535795415776,-6.3559311809724335,-0.606223810827356,6.591255750342898,-0.3824853307454825,4.402073445036548,g
-9.695189572211477,-7.96774591435547,-13.690646111267881,-7.51637559852625,-2.628729511005856,3.8847734497027444,-3.2111313426871093,1.913347585395084,g
-8.939389011096115,-8.741928410657087,-13.671953554793097,-7.765510103472766,-5.020902250120514,1.5942924459471437,-5.380417048718637,-0.14164176589520688,g
-7.4039686693884175,-9.108437849864666,-12.952910157552044,-7.604777454170295,-7.7227373356855065,-0.5211640501919188,-7.061980264834176,-1.8869922950605758,g
-5.981265560973058,-9.297113362284993,-12.138768441343718,-7.504980767254156,-10.187768564763115,-2.618699700202338,-8.365561042664314,-3.349670416951844,g
-4.546390037357909,-9.021718610168108,-10.437470701306369,-7.068436246187689,-12.129138541969724,-5.719415076530062,-8.7257923295255,-4.085631549152226,g
-3.8075737567089134,-7.836298466915665,-8.751185829467495,-5.755185696088847,-10.990757607489648,-5.749716212631754,-6.948209978843316,-2.6154425874341514,g
-2.589279542968471,-5.664234726981618,-6.2037788463983015,-3.4241450193017977,-8.483706774131711,-4.501591554635401,-3.8209519785315833,-0.01374227717907921,g
-2.589279542968471,-5.6642347269816185,-6.2037788463983,-3.424145019301798,-8.48370677413171,-4.501591554635401,-3.8209519785315833,-0.013742277179079032,g
-1.1325510372994898,-2.980718359561549,-3.201168229628119,-0.5443588579118632,-5.275689157854856,-2.366126849132116,0.05900826782121058,3.081176628400663,g
-0.05413484217001783,-0.49065515322764564,-0.47021465458142,2.0819376141622654,-2.2748641256109687,0.008457957679090633,3.8594733194421154,5.873051432016683,g
0.13364433737392015,1.4639000604824868,1.4090988422486899,3.8032199746435857,0.18421891291726844,2.1109061875452753,6.946825059922093,7.808912963140112,g
-0.5583324735095706,2.981145846667176,2.3339276301187435,4.489700144009182,2.568764710201531,3.8083241992363823,9.14810885175702,8.828223235339753,g
-1.5528113644435575,4.256066526354071,2.6694489912858663,4.541186345544334,5.367882714776989,5.2932560398980995,10.679488748679871,9.278391298645278,g
-2.0662128714944483,5.406109325500781,2.9619433802452577,4.546084187539291,8.342054415777712,6.823908863923933,11.848890644621985,9.565270716593593,g
-1.6204332126078291,6.516225292946115,3.56588531711553,4.846232840524809,10.741624236818236,8.443374932107195,12.768290408423049,9.824366434450084,g
-0.3589276260411963,7.524895823289798,4.392719531430273,5.310424946254136,12.000398859824893,9.84542103210656,13.247037980481247,9.85490170065078,g
1.0467165138516723,8.043103438735333,4.945730587639119,5.454022357825412,11.98573393415958,10.484121571443165,12.909884247200134,9.315796802138587,g
1.8342505850069877,7.561668987288115,4.650439567326339,4.796775191770733,10.856845783073256,9.886746562186271,11.468928959296196,8.003551767118914,g
1.6277578421898524,5.935001828016757,3.2594250363306023,3.2012702998058797,9.017607925146944,7.9633055850052585,8.97667266477761,6.030219370614101,g
0.632510257633603,3.5130053416209734,1.0300780242325813,0.9707591596168597,7.009170385721395,5.080856822974283,5.866060525557911,3.801445260804641,g
-0.55427541965355,0.8057337246965405,-1.4348117012554151,-1.335981145279067,5.078486230871799,1.8577229882100816,2.7291922640680517,1.79542942737082,g
-1.3485125347749993,-1.7740896006915243,-3.5308006214163234,-3.2268023672887693,2.95556374961036,-1.1524790881800002,0.001927817295289813,0.2755999901867018,g
-1.5171261270397332,-3.869776778400471,-4.945855485272961,-4.515401332188713,0.37086500417616863,-3.680598114040618,-2.212285659041251,-0.8461959389709264,g
-1.2484659543302907,-5.229095062965101,-5.756388061911919,-5.331498814144296,-2.3315126559033077,-5.764778102896998,-4.079507916604952,-1.87719615232804,g
-0.9390129630451621,-5.9456677068787664,-6.282748630671304,-5.916431540480465,-4.456677647638831,-7.578431010609359,-5.802041272863464,-3.0513198274803273,g
-0.8567084311131395,-6.403926221580543,-6.776848982252474,-6.361804726918327,-5.750507336573296,-9.153685873480892,-7.363225870106957,-4.310615310246211,g
-0.9224069472302098,-6.785277415180711,-7.157324953422868,-6.484262760495601,-6.525735296629085,-10.192779595224902,-8.410890072676779,-5.302903415690997,g
-0.7693351121625243,-6.774266161168792,-7.026761255872712,-5.929396181325265,-6.988869168534256,-10.157419170256281,-8.391798739012678,-5.56810475794836,g
-0.029921721263409928,-5.8999096911939,-5.981181716844804,-4.429491347607613,-6.829273114035776,-8.61662047741659,-6.893934235991921,-4.79443949941494,g
1.3721146563289224,-4.031856417197991,-3.9515670801332354,-2.0296992200212514,-5.577373459588184,-5.587570405891292,-3.965665259618059,-3.009425100922388,g
3.1320930053478566,-1.4371638185490716,-1.305449879496953,0.8738818050240835,-3.0808766412668236,-1.5989093117465378,-0.1619518558288414,-0.587886879572934,g
4.721159755174225,1.4425494843105868,1.3314072821040661,3.705640608801076,0.42337271857360925,2.556218963928213,3.7235728522929477,1.9491973676025232,g
5.674562007367089,4.092468394994174,3.379632244209528,5.975133542173945,4.38146826153372,6.188195347782826,7.043349736664986,4.211030790426036,g
5.8341109691346364,6.0244588995524335,4.561228610515661,7.465465511465982,7.996997494917364,8.969929889868238,9.542375267544275,6.078871013287465,g
5.400832532416885,7.081620374055386,4.979142395313527,8.234976011581521,10.62604539388034,10.946153207694056,11.332312732588662,7.624489291447297,g
4.7673104869275225,7.581191647924335,4.969395921493087,8.456798402387808,12.299369567376095,12.30021357562263,12.634867319151907,8.912368829806912,g
4.252783467305043,7.922006029324815,4.821189332043685,8.238313177890767,13.550076360773096,13.059599865971208,13.482697643161893,9.860371903518654,g
3.940959277688357,8.095838178350245,4.5915323740533776,7.565109929210729,14.52721500742536,12.996352643213521,13.613921063146815,10.247578019112874,g
3.725560114509922,7.783661414954477,4.161322022370439,6.393914753734819,14.593977793131492,11.815071437006916,12.662686233131453,9.844515769562628,g
3.4831707266025127,6.853974853897237,3.4341894311174714,4.787040077393624,13.077260303957985,9.438180587474644,10.490190999474569,8.57411703178463,g
3.2074869998288293,5.5199246973565135,2.4643785143552552,2.9603939939341664,10.170118340871918,6.1145157223912445,7.3653141798446295,6.590040612900675,g
3.0146105181915575,4.052809562569868,1.432873871423763,1.2102805596294286,6.804314536882328,2.285864167963483,3.8522222356326155,4.207100524696419,g
3.044977884695629,2.61435853826706,0.5486596076310976,-0.21528495422253985,3.8170353300848503,-1.6255835714792617,0.5292314858366713,1.7413401318981676,g
3.3381959877274845,1.3717884636601692,-0.04855093179748504,-1.2092001321933858,1.4900570000547781,-5.340570390619201,-2.2347300299118174,-0.59750828372678,g
3.7610031370081956,0.49235739486609653,-0.35732674955415344,-1.8085826529784323,-0.32695595978509023,-8.719010728033691,-4.326452294024854,-2.6843917831595405,g
4.051852155111571,-0.043040044682581824,-0.5067783063038622,-2.1133417945729653,-1.9732640709314933,-11.669097367245383,-5.779214285559132,-4.394799419732511,g
3.9724170074415652,-0.3751857589476807,-0.6379141772157962,-2.179299861728432,-3.670889037024557,-14.034797240433216,-6.602821939037192,-5.568919185829922,g
3.4493142867428603,-0.44136385184205923,-0.7689822157700252,-1.9722294345013602,-5.086399970912157,-15.562422434146526,-6.678801747384083,-6.052370534978428,g
2.5773127151640063,0.03606551057412587,-0.8017482477733466,-1.429925827215767,-5.332226220128109,-16.014585143931082,-5.818307049834319,-5.766328332860203,g
1.490875145972366,1.1226909264176759,-0.6695711832879805,-0.5824922023932668,-3.8240315771085376,-15.347432354715306,-3.9459606345376756,-4.760896767392962,g
-1.1622046251971612,3.6755795985472957,-0.28398018528462776,1.2038244370197215,1.5081897798798007,-11.591607239577625,1.9306868312604544,-1.4138918763002488,g
-2.7116216267554156,4.7025688726503905,-0.28277687208286706,1.666007409650069,3.22880033287111,-9.094413660753968,5.127148956586548,0.4304574062438564,g
-4.269216681292095,5.713947650700568,-0.4200004027746266,1.7341838794063662,4.260225240704591,-6.451411344145893,7.996096457779565,2.156008859565141,g
-4.269216681292095,5.713947650700568,-0.4200004027746266,1.7341838794063662,4.260225240704591,-6.451411344145893,7.996096457779563,2.1560088595651417,g
-5.6353409827423295,6.754037688807479,-0.6079766129672671,1.5133391486053729,5.1965252608527335,-3.8402193490865244,10.260276800830892,3.6386773731709257,g
-6.651716868507331,7.7265488812580045,-0.7927385783604736,1.1304336564818303,6.269459149571684,-1.5292747466136407,11.702104972229682,4.710826691547284,g
-7.2918323939602585,8.528679566093555,-1.0290642668715433,0.6299199891259963,7.276219878949972,0.13135773884922486,12.179810276194907,5.186853475101181,g
-7.6574656025793715,8.986597847289044,-1.4788406099819629,-0.028498429550093785,7.796417915256585,0.8218271918138192,11.662478598020035,4.980074910509028,g
-7.872818060520837,8.811607988552455,-2.29652157105886,-0.8767634189207216,7.309231332780842,0.41433038982820164,10.2483281111699,4.178888512557281,g
-7.95269570278618,7.893945691310026,-3.4585371633190847,-1.8358574778350782,5.496102370844151,-0.9082402398959081,8.163431746652176,3.0041962045101203,g
-7.7649477003957275,6.578514631501404,-4.704353352744777,-2.701649057646159,2.7076103675160423,-2.689003676723741,5.730190106862159,1.7003202470834367,g
-7.145115965051355,5.408088831483399,-5.695338975913994,-3.2535830550311324,-0.13408285683834437,-4.414052047755986,3.2782346824468553,0.43514231269779413,g
-6.0808356331647335,4.612902838732756,-6.27178109875745,-3.4164594202198773,-2.361123178595507,-5.770153281607461,1.0260067661690233,-0.7676446441285283,g
-4.7993781499158175,4.0354196165043685,-6.56874892872384,-3.340895042679852,-4.12210207144602,-6.74952368779132,-0.9723904801958538,-2.0385005763210975,g
-3.66118956518809,3.485383175037126,-6.891761779778937,-3.316994795719256,-5.979940059748258,-7.548207219030044,-2.7657808429019175,-3.567844829267981,g
-2.9236353411329334,2.9341539934525516,-7.46990148207293,-3.5733294991681546,-8.214276518069067,-8.373460478064942,-4.395045464837148,-5.438699715165983,g
-2.5433934154323166,2.4202656051471148,-8.264587034148892,-4.111811053256646,-10.695706743326573,-9.294954161387903,-5.824754248422857,-7.519085430949626,g
-2.1580258923955986,2.0711073774988704,-8.935376862886596,-4.692403976569972,-13.091748517706929,-10.192028277697062,-6.933162436846672,-9.502614603133619,g
-1.268641915100164,2.2576065756694055,-8.981301728438572,-4.956200864970109,-14.845673967796674,-10.801554464894693,-7.531972459908262,-11.036034421824446,g
0.48078759205634647,3.4315436751177026,-7.997853617315508,-4.587997809790713,-15.238144558417877,-10.855282365999159,-7.418181403270857,-11.824947937106025,g
3.0944860243862555,5.664470679106273,-5.8992856523156085,-3.4311286080034527,-13.971632524159038,-10.243994706577581,-6.467537050482036,-11.698472383551726,g
6.209400761060044,8.511095194002149,-2.95513586721503,-1.5284411083272766,-11.649305293277283,-9.104489113662616,-4.7248827721992,-10.66383799970158,g
9.270627510044292,11.401020148071247,0.3640686415174706,0.900475064557706,-9.281005782183499,-7.774298356365034,-2.422188165117433,-8.92242228541437,g
11.782112372482837,13.9968358515566,3.5955371751972978,3.5350630337991995,-7.281022237732648,-6.647427519972625,0.0922384007813057,-6.791922213020234,g
13.491566479977257,16.148247116038515,6.427151413562235,6.064137278243072,-5.2128934065548265,-5.998345087608625,2.471157960999747,-4.568255554185365,g
14.418864044631075,17.783339698150186,8.74555775117894,8.279794970218967,-2.472373600879082,-5.845772795598721,4.476696722488275,-2.4369930439867438,g
14.71758565870864,18.998780614002982,10.580838078566153,10.089565745250619,1.05782761431934,-5.951686741321098,6.023845751248314,-0.49172384368469935,g
14.451918167659429,20.006870213312855,11.94382639501995,11.431062819743723,4.918371479326446,-6.0147979220816925,7.116187393786939,1.1829691835354634,g
13.444139296211196,20.74702344756809,12.650631397616795,12.159440067582748,8.21547814161941,-5.954552708699497,7.706401795309293,2.433740252848467,g
11.325813790208324,20.678274216929346,12.311603723957045,12.017055699041055,9.865339618079485,-6.043522187640101,7.611943687937426,3.015498113748272,g
7.786042950811175,19.176856628901348,10.55023705909083,10.742350377977024,9.211053873874727,-6.739375462726102,6.600347459595353,2.66671608553121,g
2.859149368193701,16.09882098535882,7.299471004720717,8.270562338568492,6.661273321901947,-8.328239542112078,4.604246653446362,1.2881120958848267,g
-2.9386193008564008,11.8718343707942,2.9553597085631127,4.89709491976552,3.4617297539753453,-10.646172447396742,1.8940637608468225,-0.8801072555936903,g
-8.720063542185878,7.216379358762779,-1.704461980944966,1.269340265548229,0.6505584782788106,-13.072585865403394,-0.9360609380016417,-3.2514509450699207,g
-13.545499597583367,2.9423518408050064,-5.788918230733285,-1.8357689616247945,-1.583989150092923,-14.808196463443517,-3.1763739966417157,-5.116051316163096,g
-16.791666415261624,-0.2208839849104985,-8.63163718165588,-3.839577656611726,-3.491715692416046,-15.288406249926577,-4.292132151428731,-5.95626341683659,g
-18.36074603900447,-1.9826746776398658,-10.030359810595211,-4.584812697228652,-5.102343216102911,-14.48253663324699,-4.137643261627202,-5.6464779495366955,g
-18.593810395719142,-2.703270252413042,-10.22202975078925,-4.303191540818148,-6.193647576689152,-12.864025274720774,-2.9658652731308126,-4.4354467247205625,g
-17.95515927490918,-3.000675592851972,-9.5989764440805,-3.370991447740189,-6.588114587268068,-11.065775236825086,-1.2299285236337785,-2.758102277323925,g
-16.729386409212196,-3.099621028971794,-8.403846547106877,-2.0540907229625485,-6.174971602901391,-9.499516885640155,0.6705262951248698,-1.003897251910881,g
-14.943803819211961,-2.7171323736874995,-6.651460384766834,-0.42205884184710485,-4.859633840369453,-8.234010410947212,2.5102131299742534,0.6220845561669208,g
-12.519388741873474,-1.5350226358881751,-4.276772618522374,1.5536561672593054,-2.803080971837737,-7.163650978472399,4.182644004706939,2.0702963552102345,g
-9.477785318573437,0.4437199286357895,-1.3075767986746567,3.8446364423597332,-0.5530112086944609,-6.255046172187677,5.588877218273975,3.306815206404161,g
-6.040017192197597,2.969438100293128,2.076428472460052,6.287774786438981,1.365119003785415,-5.667264260117496,6.593439438919691,4.215988509764168,g
-2.582110456425276,5.671016797034826,5.571432735373426,8.621474472573336,2.882263794580582,-5.700687040378592,7.050754732381904,4.634992568315845,g
2.8322220411870753,9.582220872480463,11.413291954640169,11.96061046154448,5.210090398802297,-8.543200725977345,5.9047090503200454,3.634078629325868,g
4.2758432730145195,10.162540191503972,13.153873780123291,12.672370989856379,5.820046415464294,-11.19179722473198,4.264397528037581,2.2233653509377387,g
4.80096531653716,10.067808178667983,13.972799159500388,12.73360340949051,6.108306082122169,-14.088762159822911,2.070178803706779,0.30477417748924723,g
4.80096531653716,10.067808178667983,13.972799159500388,12.73360340949051,6.108306082122169,-14.088762159822915,2.07017880370678,0.3047741774892474,g
4.557374801323361,9.646036365485461,14.02153724461038,12.29451282047727,6.347160129921593,-16.64229792606327,-0.3994303340087907,-1.9496439987000158,g
3.838364376661332,9.078624374870525,13.617538187244199,11.628524847566238,6.520651292750927,-18.298218399585846,-2.75705178633716,-4.260977175134295,g
3.0093255517583968,8.583635320829075,13.150388217695555,11.062467047938332,6.382532862160465,-18.601620357928383,-4.555417464108837,-6.275630638302018,g
2.3720212741129103,8.556155284043674,12.916849541459579,10.84654779801928,6.034202431020558,-17.24292880838649,-5.387655190636957,-7.638828077501088,g
2.027036859011782,9.24491527603432,12.955734411915836,11.034846718600626,6.066689086014257,-14.138005136498055,-5.034720080604727,-8.088561545346806,g
1.8399147360572479,10.404305621119839,13.027629915753817,11.461300849828078,6.970471426154563,-9.49310702532963,-3.5775787978384037,-7.552280133485008,g
1.5469644220875949,11.4587835239925,12.779084318427895,11.829671504434458,8.63267211940708,-3.789395294532686,-1.3794227911752632,-6.192920022571379,g
0.9196065735069224,11.920463556172468,11.945245997070366,11.851265723040807,10.457146043965848,2.304631298510641,1.0593064308034363,-4.345447805920977,g
-0.12658256880543242,11.523351097814844,10.432983651358386,11.343912092902086,11.691628672291959,8.059730527573354,3.281333831474933,-2.3681823430441256,g
-1.5208982086161813,10.158553387659968,8.29096476234378,10.257560822983548,11.6399586441723,12.85049866655036,5.0082403714135015,-0.5112052997773417,g
-3.0946906924289883,7.961798214638145,5.66299643128219,8.6481558488837,10.037888440519222,16.32021387642632,6.193449769762385,1.126053413611507,g
-4.666130657601183,5.363463491400301,2.7446663349110985,6.628962379889787,7.478167818965457,18.423827319969092,6.955028226859045,2.5521038914646903,g
-6.1220863228928035,2.741285129614959,-0.29304590745151626,4.308946898561972,5.099904933716649,19.276046995506697,7.383042205965724,3.7778617928057434,g
-7.455369248349662,0.010179312748729607,-3.3751569770167693,1.734833458632302,3.494825811657477,18.929491230426578,7.340713136860495,4.67684459514768,g
-8.714435063103988,-3.207489407079808,-6.493129417375142,-1.111593000801919,2.1002394487435447,17.312534597767367,6.459796508769766,4.910907064816383,g
-9.870927225990773,-6.97330002530155,-9.563239291338324,-4.210997211193051,-0.04959129632943746,14.409444855919105,4.401724303984079,4.054689393116207,g
-10.682156894016142,-10.768897597144615,-12.280910243096134,-7.331864046131193,-3.1290151476528667,10.525749251420404,1.2033344049718147,1.9037372989508192,g
-10.66035626068342,-13.815231505142767,-14.09093146278865,-9.923841636584815,-6.303108827154152,6.396026461267376,-2.5819289466869337,-1.2662772028615676,g
-9.223939808221587,-15.454260526267044,-14.328200711658027,-11.228244182189643,-8.498766151380119,3.0003059792842053,-6.087539478885948,-4.733911746905294,g
-5.999094305697552,-15.287592728648459,-12.509905262083766,-10.612402488641495,-9.135512343232516,1.147174227721483,-8.567656997208333,-7.665704290230694,g
-1.1071671939253769,-13.308403199857688,-8.652087847124502,-7.937285428608357,-8.336482963804231,1.062055056149205,-9.78427012775752,-9.518401705797904,g
4.777870727046259,-10.04789030387148,-3.3790832957324555,-3.693277559636063,-6.816434903413841,2.2848287788232278,-10.0845446040647,-10.252208912813696,g
7.160967913557242,-6.348434550423873,2.3266098347412174,-1.7567405752196812,-5.433422775129728,4.005663604941292,-10.096409601944853,-10.241025868551954,g
12.262404208783673,-2.8034950158455647,7.590318812751851,-0.037912418637963616,-4.406394112350087,5.612375371724759,-10.254299879959714,-9.950793760069317,g
16.134925448228095,0.467297154969572,11.967770588068161,3.969460480848138,-2.956383114633629,7.018848937348688,-10.523664550833434,-9.607469971916116,g
18.7593199033413,3.4416954400749398,15.405501731860909,7.188824445103174,-0.0933720589219746,8.54074614522396,-10.531441259473644,-9.100020413768954,g
20.27117499046914,5.840341760101692,17.963224394257498,9.695613076614556,4.159327317631353,10.490493137619152,-9.947878686149252,-8.18105918214203,g
20.72737635634574,7.306600660821909,19.58364981358076,11.443460252683856,8.584589355982214,12.858969206956875,-8.767318423305344,-6.76116177520324,g
20.056966141249177,7.735006187922133,20.068138469223822,12.183531448791141,11.8209324616436,15.297255358827877,-7.287455195229844,-5.02506376399271,g
18.191281128735497,7.215925046563103,19.220221788235,11.621849333965766,13.324840568725971,17.33882462320167,-5.882926212272595,-3.31129668992478,g
15.232474850655176,5.801416101431201,17.025407408604018,9.645399984479461,13.37064542413639,18.654194460713647,-4.803828925789878,-1.9292963296583985,g
11.509309768669839,3.5276332205500283,13.730179495540671,6.421288457641843,12.564602861182092,19.150712974290585,-4.140223595960352,-1.0799521661452318,g
11.007016330474993,0.5407610983070565,9.751272186157886,5.298512275879001,11.471914928553769,18.87194771566523,-3.9248309302960775,-0.8718049469831541,g
7.097689043479403,-3.007331257734407,5.496693381532023,3.757238989232873,10.265241529888812,17.835207838202418,-4.234046553914802,-1.3333466576712187,g
3.63815188148953,-7.0630997840707765,1.2797461967163177,-0.7618271144983616,8.46149969479173,16.008621107513783,-5.158440997319575,-2.381116649083499,g
0.8855684472791978,-11.428335530250378,-2.609257025566876,-4.823031719515605,5.3253674049664035,13.45903395229532,-6.657368232275242,-3.788809424491574,g
-0.945671718476347,-15.517356181633934,-5.828222833147803,-8.009759580045912,0.8428827384151762,10.469454032138692,-8.472890679189973,-5.22506355434963,g
-1.7450876093569767,-18.665906031726827,-8.071864863295058,-10.05924878614778,-3.901859125259739,7.439447283600117,-10.254984813274355,-6.39183140029721,g
-1.5965751010248428,-20.70699331240952,-9.253543913942181,-11.001600952735757,-7.5596077658742775,4.653193312464042,-11.815378952067324,-7.207779625218611,g
-0.7627748043510203,-22.0229194916566,-9.554071095920541,-11.156630133071534,-9.562721025003896,2.178358384417785,-13.244701493396017,-7.8815656062668396,g
0.47198970388199096,-23.016510422339103,-9.251842928630015,-10.923395613313202,-10.213564122461486,0.015143330466412053,-14.741088517210244,-8.740386426672703,g
1.9842432388681348,-23.71795283230329,-8.485435884561175,-10.484230935797873,-10.063918601759722,-1.6571906158033716,-16.292753167142372,-9.885319864948912,g
6.304326645286769,-23.100094047202912,-5.009274599647041,-8.027538259688898,-8.705722485978598,-1.5912550638581282,-17.747138561206164,-11.254871298416212,g
9.314805073047236,-21.09797166050072,-1.961773364057277,-5.356966706166546,-7.464760763375379,1.0185208528025145,-16.52562427804596,-10.164415085422393,g
12.56572266546237,-17.850047508102314,1.698256967839973,-1.879218397246203,-5.317149684545332,5.16137562756857,-13.860264598740752,-7.579460197367669,g
12.56572266546237,-17.850047508102314,1.698256967839973,-1.8792183972462033,-5.317149684545333,5.161375627568569,-13.860264598740752,-7.579460197367669,g
15.41234130390959,-13.978280430314783,5.271003104006148,1.6943298248815257,-2.083901326768469,9.954375509025478,-10.344354442109271,-4.00477265698506,g
17.214705417253704,-10.50481087170272,7.986904077490339,4.569395463409562,1.6777195223937724,14.340922275936958,-6.806536401697338,-0.25632185679437425,g
17.70869048877703,-8.097914766450032,9.456759539197561,6.349992764470306,5.107016573524454,17.65543226757926,-3.799779602351717,3.0292213935477657,g
17.116459310024034,-6.665501266972468,9.826859988623358,7.210892514628718,7.834512057296324,19.86122239861554,-1.342548365421044,5.712875685377336,g
15.894171859236474,-5.782195995579212,9.495970828562573,7.619014438705442,9.99046579888324,21.28057764849817,0.8715072392242005,8.054547826898846,g
14.347436793400078,-5.310130664425741,8.690303245151503,7.855863527740884,11.502838521409869,22.114683661557393,3.0173922808023916,10.289837679764771,g
12.450289125244687,-5.454938235601956,7.296466493467717,7.753772938157368,11.862014585388348,22.196764806272803,4.862886704064631,12.258989286334627,g
9.997155282734516,-6.423619663140447,5.052891206970861,6.854454134118178,10.707139176422327,21.13659707695655,5.882570835130679,13.415037504399042,g
6.934514069767334,-8.233313299629758,1.8888974568261994,4.841158601473341,8.3089920834216,18.6729639368281,5.618372788182211,13.1933085786162,g
3.5992934795242726,-10.683455207861755,-1.854644300901765,1.8904916744248346,5.350969269512172,14.950130977147438,3.993980370921192,11.424033743006436,g
0.6730960353536741,-13.281692693189541,-5.47447745590804,-1.3306640679295867,2.495078400194717,10.533227559785548,1.3757754226904748,8.474645332890159,g
-1.1395464649447211,-15.343448130779668,-8.218205369346848,-4.021581623015764,0.1700281032894523,6.147447552096006,-1.649446560342297,5.047412447770386,g
-1.4969173309380412,-16.45761303078578,-9.672601308762214,-5.691151381684167,-1.6473484152069464,2.316095129937144,-4.624418459482704,1.7950971761401184,g
-0.5886499442444098,-16.82147719355669,-9.93367874231653,-6.36236746139775,-3.6024747500684784,-0.8270295915717497,-7.430683458017808,-0.9827240852558422,g
1.0401193683196668,-16.898864828324708,-9.41589826447046,-6.405793155791474,-6.461996620117224,-3.4108897149176713,-10.181105434806552,-3.356007024264322,g
2.864103037105367,-16.797793574934172,-8.479919177256521,-6.162977000660542,-10.069730382043112,-5.532274701059446,-12.900270954020334,-5.487083044898247,g
4.664526242080544,-16.205336363486555,-7.202895747967732,-5.668546784387582,-13.050342153487964,-7.068597977684414,-15.296526168765627,-7.296605574342317,g
6.545936062337813,-14.876764052398395,-5.4318291820822235,-4.6694984616037445,-13.92111465747551,-7.719627528911717,-16.82525401238902,-8.375279381260366,g
8.724972891423988,-12.919432235111923,-3.0045695117374116,-2.8916977159297352,-12.424494885147741,-7.185114693478141,-16.967676120056577,-8.227503172854378,g
11.266923353646266,-10.600145225725324,0.036907593186110435,-0.33355317313951255,-9.596785854618252,-5.343535142850277,-15.504468777896733,-6.635866183498358,g
13.937678336355532,-8.15447728079101,3.341930737788691,2.619709671137634,-6.7427999175326025,-2.365474174653868,-12.627395585287736,-3.8551727579589254,g
16.257987841009133,-5.841376289341322,6.314560507429715,5.329082025335093,-4.551504144573362,1.2844878795614487,-8.851900425742839,-0.5144623326460336,g
17.738064197106862,-3.9191261643735418,8.356302524121913,7.197368179566486,-2.880074716351175,4.995032829198628,-4.779978797425294,2.6866409467940047,g
18.15197603726199,-2.45264777040777,9.159011842140858,7.948022926945538,-0.9527830041217491,8.240716645963916,-0.8498966999964374,5.299111512447533,g
17.660503641251204,-1.3491893417834335,8.823450023483222,7.711938418857407,2.05235274418594,10.730739055456015,2.7467883171167347,7.267506999676094,g
16.688564403535576,-0.6816747056451908,7.7079020865914485,6.865794804836017,6.070388609258204,12.365378170714033,5.917795972497119,8.789016948546886,g
15.651057927803226,-0.7607808928191586,6.152112200699202,5.741402426319653,9.731211313530995,13.073787991979833,8.448800073626483,9.990571952251575,g
14.730596221537406,-1.7556132233874557,4.298839879019448,4.423512146216383,11.280714674904972,12.699254752010754,9.941207185038085,10.706603623841772,g
13.852095891079426,-3.440599114729352,2.104162930861524,2.7793343938522646,10.090611264194933,11.027918404356877,9.975507141561703,10.565456562287004,g
12.845011167997669,-5.470416881596461,-0.5157925273215695,0.6745946944852605,7.082429010268274,7.941984405223768,8.355376219858169,9.295304441482106,g
11.660818311111505,-7.7204751810305705,-3.5019606741834592,-1.8079292563101312,3.709388480488454,3.606352165741589,5.250388005600661,6.966503960233956,g
10.49010123032671,-10.170741160951618,-6.542537373613162,-4.311741989909461,0.8260807052722928,-1.4380860373750408,1.1685827507397817,3.996680316378473,g
9.702782517748199,-12.604758963258906,-9.12403781376259,-6.336304425220371,-1.5045027132375015,-6.371930656598034,-3.1971222906805306,0.979340507466653,g
9.662356809495401,-14.624527496194483,-10.725777115736935,-7.448267807911542,-3.583444729041747,-10.352694585140894,-7.157894556844712,-1.5148585786114737,g
10.54036919928761,-15.859607389942232,-11.027043849270948,-7.4469599242010585,-5.637163525104649,-12.769788741248622,-10.170784521200536,-3.0853507014945705,g
12.223865826323099,-16.01662777819804,-10.01749112349782,-6.4240194669862785,-7.432511486942279,-13.369864749946027,-11.90718468421834,-3.5839937554296832,g
14.330624418080465,-14.918705142447882,-8.009101217120815,-4.723472634563985,-8.12560175509614,-12.25393027649493,-12.280908569583072,-3.121935199838998,g
16.319571713853648,-12.780755669779653,-5.566500409787048,-2.823471195923495,-6.844285407411073,-9.793432529361695,-11.449913944282143,-1.9959732390130829,g
17.68553586319327,-10.347895846417044,-3.3201783765180437,-1.1639559882069688,-3.7125941699739995,-6.467545364507032,-9.73772251721951,-0.5582768686193461,g
18.17265547429175,-8.439936172898944,-1.6937053504112503,0.014554084843453552,-0.06534148066275058,-2.658065536081103,-7.452101747934779,0.9267159892262814,g
17.86161940719476,-7.31736281756726,-0.7417077560744487,0.7134811766479944,2.617716429066482,1.4448071886162481,-4.731097257814032,2.3734496043671056,g
17.025235589442353,-6.693097771127206,-0.2854209923908611,1.0372336107374445,3.8360509522394617,5.695859045544195,-1.6043140643900848,3.8280899326073303,g
14.178407814387336,-6.514738232485383,-0.9230992887180139,0.1621147408611229,3.713824336344883,12.762678528955469,4.742196425388288,6.362178893997803,g
11.751159510574178,-7.620268536514814,-2.750928157890887,-1.7684501705633338,3.1566266245013312,13.975066562073343,6.612213023056915,6.565651063272748,g
8.424840877397436,-9.919147028666202,-6.002077809386875,-5.033220568985956,2.308144020617884,12.802154580167208,6.736057421921808,5.400159047239674,g
8.424840877397434,-9.919147028666202,-6.002077809386875,-5.033220568985955,2.308144020617885,12.802154580167208,6.736057421921808,5.400159047239674,g
4.550194492938156,-13.33449654141551,-10.374316562584932,-6.350212324081549,0.8716004374734553,9.359184696166597,5.074547222731027,2.8656931023863503,g
0.9373812285494925,-17.402320174013504,-14.984540401305656,-7.762418604115913,-1.6340091411456086,4.405517610906513,2.202143667155139,-0.4867434283766473,g
-1.5438351210173114,-21.29275878004017,-18.76169222510929,-11.267794404598177,-5.398389323643746,-1.0648117786729436,-1.0543625714494609,-3.857631199437898,g
-2.4734041173993346,-24.197685419096064,-21.018953568766385,-13.349737703047259,-9.937331511892978,-6.36162833099589,-4.123291265656763,-6.6383305161030135,g
-2.106962898114394,-25.914926819584963,-21.787697421182546,-14.09050229878226,-14.489330237995961,-11.364539932553463,-6.958583654466594,-8.667769243181144,g
-1.1299162067938273,-26.91287663244093,-21.634743028982186,-14.009381088807709,-18.717482574056106,-16.288962900285497,-9.853319475366733,-10.156251811522818,g
-0.1368411117049792,-27.69594867069447,-21.117310623650923,-13.585297891794207,-22.67938359332381,-21.154579209663265,-12.953726464590172,-11.364131618025933,b
0.7437846735862342,-28.250636167489017,-20.352491713223607,-12.89504262615777,-26.17411883210189,-25.449386887457436,-15.910648661802009,-12.28879650472187,b
1.8101805146682453,-28.187457876356,-19.03534269672095,-11.631280841387767,-28.528931107059613,-28.300000584511775,-17.984990508477797,-12.609094766118043,b
3.4289531927144354,-27.188853037493278,-16.80389798447647,-9.44508097956533,-29.077163155040257,-28.983454953361417,-18.500276528957436,-11.930085896120394,b
5.679898214026912,-25.16512695579314,-13.602936161217915,-9.251877116594876,-27.537277798210646,-27.352883248304643,-17.252165871841054,-10.116052127162217,b
8.253884455629272,-22.237596532055342,-9.80794623283948,-8.591225857604053,-23.98274442541099,-23.901784602981515,-14.595672086210621,-7.444023863582468,b
10.629184942535698,-18.862349496175817,-6.084430102095548,-5.223777128936005,-18.926730136898612,-19.492538443761106,-11.225984029153064,-4.492487129218016,b
12.37913506872376,-15.810354116223277,-3.0750277556314125,-2.7496057464251153,-13.531934599218795,-14.943158146746725,-7.8338864351515225,-1.8777585111793023,b
13.40970674249373,-13.665995159791393,-1.0805586576759194,-1.414319121983689,-9.174914348007624,-10.700450583697478,-4.819168556978037,0.006423552006450883,b
13.976900045008446,-12.307518161194913,0.054164079315892975,-0.9818040474113676,-6.3658384276147455,-6.78745031614851,-2.2028322841006904,1.1350992193235112,b
14.47498028654391,-11.075554212369994,0.7509602265602486,-0.9414404992808727,-4.295047081379112,-3.0528513697148663,0.20979038771431036,1.8047655756571053,b
15.144118511961173,-9.460870958633697,1.3503816183627277,-0.8659613209039074,-1.7610386968794445,0.48136145643415984,2.5286963097111137,2.384543785391072,b
15.897026256528918,-7.52171268976875,1.8731587312130613,-0.6866252701385942,1.5074062246914388,3.45838612383434,4.57304094743178,3.013993887751094,b
16.371816518427675,-5.767525384410893,2.0364115492336343,-0.7067872243320454,4.51119434996351,5.323114457127934,5.9149527871260945,3.48873998231874,b
16.17048500207985,-4.876161300546405,1.4730147053974387,-1.348830843168919,5.699806207515886,5.629445105814487,6.125324243746564,3.4382198101158523,b
15.133285390794583,-5.409528862430661,0.005097118258754918,-2.8149427879846893,3.95112226417924,4.298214769643128,5.03464550109229,2.634214357744267,b
13.468683085738917,-7.4247904742898685,-2.193634045852204,-4.9124704143373465,-0.6620753526717451,1.6623571452459251,2.83168360759104,1.1591770511007617,b
11.637817941529656,-10.269819321232305,-4.671928278806496,-7.174930044754507,-6.600591285990492,-1.7378732156922492,-0.06541698761715953,-0.6833786040785461,b
10.072371816397096,-13.0283562461449,-6.97770149033705,-9.169896516145544,-11.60525464636272,-5.476954721152473,-3.2754987261962247,-2.603049444671172,b
8.949948503050315,-15.30484027237612,-8.903191897199646,-10.731740597246237,-14.339997200908337,-9.424963863534618,-6.646263188017137,-4.496300047765384,b
8.197106423526188,-17.423263720963803,-10.4749983309928,-11.94287659902556,-15.47700467036735,-13.620910911117146,-7.26282361449509,-6.4336894579974455,b
7.671285762911931,-19.81972383356614,-11.73888741042453,-12.92714060677928,-16.93101440157758,-17.96812387247425,-7.824420855992932,-8.49004800575096,b
7.32368963682264,-22.45365511929368,-12.603652866226959,-13.671015656707505,-19.975992554681213,-22.068198722321803,-8.435874259573431,-10.576399026821337,b
7.215144414860123,-24.86322781370316,-12.893329292694114,-14.018974891171396,-24.19492489390207,-25.35197951170547,-11.313583231598686,-12.43355904546769,b
7.430461574943938,-26.517203238022404,-12.491060418628061,-13.801747962783756,-28.0007439911082,-27.35144955069483,-13.116801331612402,-13.785429783964636,b
8.00807709227834,-26.964357955635883,-11.394720296998393,-12.949972066129884,-29.776050353012494,-27.85447285732574,-13.632518620006763,-14.475261676577375,b
8.932633574602294,-25.910270220824565,-9.666849307244117,-11.50189265250636,-28.678929094001187,-26.860801291248286,-12.836953256223339,-14.440211976199006,b
10.151732467531847,-23.432074385968424,-7.383813296094351,-9.544221018946882,-25.003375127010663,-24.45779320203065,-10.777888437018731,-13.597878364413017,b
11.56875955348441,-20.029855988567913,-4.648840564674503,-7.187895593912235,-20.039783663874395,-20.76596965048234,-7.523658644026378,-11.838921567694927,b
13.014879565222856,-16.28621489346677,-1.6495549913328276,-4.618592170863572,-15.24631048994799,-16.006243651571687,-3.230990159731312,-9.17749592735733,b
